Sample	2mm tape 2
date	07/01/2025
	
Temperature (K)	77.00
Angle (deg.)	0.000000
field / T	0.000000
	
		
Approx. trace time (s)	60.0	
		
Current / A	V1  -sample/ uV	time/s
0.004288	-2.945751	0.000000
0.003506	-2.946882	0.045000
0.002539	-2.948088	0.092000
0.002133	-2.947401	0.137000
0.001936	-2.945485	0.184000
0.001673	-2.939615	0.230000
0.001619	-2.930932	0.277000
0.001184	-2.869399	0.324000
0.001219	-2.843485	0.495000
0.001184	-2.817059	0.541000
0.001178	-2.791835	0.588000
0.001178	-2.767698	0.634000
0.059674	-2.746490	0.680000
0.090894	-2.681347	0.861000
0.122324	-2.674889	0.907000
0.153040	-2.675154	0.954000
0.184190	-2.675682	1.000000
0.214614	-2.676661	1.046000
0.245231	-2.679235	1.093000
0.275657	-2.679014	1.139000
0.306712	-2.672683	1.185000
0.337436	-2.667085	1.231000
0.369382	-2.662820	1.278000
0.400445	-2.659948	1.324000
0.430555	-2.655293	1.370000
0.550103	-2.637743	1.416000
0.580881	-2.634454	1.594000
0.611628	-2.624679	1.642000
0.642571	-2.612953	1.687000
0.672510	-2.597375	1.734000
0.793917	-2.574389	1.780000
0.825389	-2.346096	1.961000
0.855379	-2.293624	2.007000
0.885163	-2.257951	2.053000
0.915461	-2.231961	2.099000
0.946826	-2.212640	2.145000
0.977471	-2.193065	2.191000
1.008726	-2.171316	2.236000
1.039552	-2.148881	2.283000
1.070977	-2.122892	2.330000
1.101601	-2.092078	2.376000
1.131438	-2.055344	2.421000
1.162017	-2.017938	2.468000
1.193215	-1.986798	2.514000
1.669021	-1.906115	2.561000
1.699819	-1.940082	3.272000
1.730685	-1.943730	3.319000
1.761388	-1.935775	3.366000
1.791491	-1.929286	3.412000
1.822492	-1.933104	3.458000
1.853407	-1.950643	3.504000
1.884568	-1.975106	3.551000
1.915075	-1.998845	3.597000
2.018139	-2.047735	3.642000
2.049072	-2.057014	3.798000
2.079571	-2.054918	3.844000
2.111322	-2.051630	3.890000
2.142088	-2.052338	3.936000
2.260119	-2.051154	3.983000
2.291269	-2.039868	4.160000
2.322413	-2.045398	4.207000
2.353783	-2.043113	4.254000
2.383731	-2.046614	4.300000
2.415898	-2.053690	4.347000
2.447098	-2.062058	4.393000
2.478111	-2.070287	4.439000
2.506036	-2.073770	4.485000
2.537729	-2.067495	4.531000
2.568740	-2.051047	4.577000
2.599883	-2.027098	4.623000
2.630226	-2.000942	4.669000
2.661229	-1.977620	4.715000
2.764680	-1.894420	4.761000
2.795423	-1.869352	4.917000
2.826058	-1.871187	4.963000
2.857041	-1.891197	5.009000
2.888046	-1.910729	5.056000
2.993886	-1.924207	5.103000
3.025305	-1.912203	5.260000
3.056429	-1.912851	5.307000
3.087490	-1.916656	5.353000
3.117940	-1.929763	5.399000
3.147835	-1.950761	5.446000
3.179102	-1.969381	5.492000
3.209465	-1.973560	5.538000
3.240860	-1.960155	5.584000
3.271690	-1.942373	5.630000
3.302633	-1.930804	5.677000
3.332832	-1.941841	5.723000
3.364519	-1.966116	5.769000
3.395638	-1.992774	5.816000
3.497442	-1.996782	5.862000
3.528702	-1.977683	6.017000
3.559497	-1.956954	6.063000
3.590651	-1.939869	6.110000
3.622362	-1.928175	6.156000
3.728395	-1.919574	6.203000
3.759499	-1.916489	6.361000
3.789498	-1.908058	6.407000
3.819555	-1.908502	6.454000
3.850520	-1.911824	6.500000
3.882091	-1.918513	6.546000
3.913091	-1.926678	6.593000
3.943967	-1.937463	6.639000
3.975580	-1.950176	6.686000
4.006312	-1.958047	6.731000
4.037410	-1.964449	6.778000
4.068020	-1.967346	6.824000
4.098446	-1.966889	6.870000
4.218800	-1.900103	6.916000
4.249747	-1.880741	7.096000
4.279220	-1.524611	7.143000
4.310551	-1.866075	7.189000
4.341760	-1.927029	7.235000
4.462086	-1.891165	7.281000
4.492399	-1.831546	7.461000
4.522799	-1.796181	7.507000
4.553316	-1.770595	7.553000
4.585450	-1.757628	7.599000
4.615544	-1.752357	7.646000
4.646721	-1.748600	7.692000
4.677559	-1.742943	7.738000
4.708648	-1.737864	7.784000
4.738563	-1.726112	7.830000
4.768087	-1.711218	7.876000
4.799711	-1.693774	7.923000
4.831319	-1.679441	7.969000
5.093603	-1.667625	8.016000
5.339532	-1.679021	8.408000
5.369105	-1.702819	8.776000
5.400988	-1.701975	8.823000
5.431104	-1.705295	8.869000
5.462161	-1.712846	8.915000
5.492136	-1.720008	8.962000
5.524864	-1.725903	9.009000
5.555287	-1.730797	9.055000
5.586660	-1.736100	9.102000
5.689603	-1.802818	9.148000
5.718766	-1.838215	9.302000
5.751013	-1.873562	9.349000
5.781248	-1.897241	9.395000
5.812209	-1.915639	9.441000
5.928493	-1.925342	9.487000
5.959031	-1.940252	9.661000
5.991116	-1.949659	9.708000
6.021645	-1.962000	9.754000
6.052529	-1.974513	9.800000
6.081930	-1.989475	9.846000
6.112720	-2.003077	9.892000
6.143853	-2.015571	9.939000
6.175359	-2.023513	9.985000
6.205584	-2.030432	10.032000
6.237301	-2.033763	10.078000
6.269038	-2.036345	10.124000
6.299969	-2.039244	10.170000
6.418935	-2.046954	10.217000
6.449815	-2.048941	10.396000
6.480891	-2.052168	10.442000
6.512201	-2.057372	10.488000
6.541790	-2.057691	10.535000
6.661604	-2.059106	10.581000
6.693600	-2.076562	10.761000
6.723616	-2.080792	10.807000
6.754231	-2.087656	10.854000
6.784359	-2.095609	10.900000
6.816582	-2.105521	10.947000
6.847265	-2.115622	10.993000
6.878281	-2.126646	11.039000
6.908662	-2.137415	11.086000
6.940747	-2.149823	11.132000
6.971610	-2.157999	11.178000
7.002969	-2.167213	11.225000
7.032803	-2.174901	11.271000
7.151748	-2.202482	11.318000
7.183326	-2.205715	11.496000
7.213550	-2.204888	11.542000
7.243977	-2.202779	11.588000
7.274741	-2.200191	11.635000
7.395448	-2.194125	11.681000
7.425960	-2.205694	11.861000
7.456535	-2.213965	11.907000
7.487652	-2.224349	11.953000
7.518942	-2.232524	11.999000
7.549805	-2.237211	12.046000
7.580766	-2.236552	12.091000
7.610976	-2.235630	12.138000
7.643049	-2.232545	12.185000
7.672814	-2.229638	12.231000
7.703042	-2.228004	12.277000
7.733697	-2.223955	12.323000
7.765312	-2.222598	12.370000
7.884958	-2.223519	12.416000
7.915585	-2.223700	12.596000
7.946893	-2.223487	12.642000
7.977254	-2.222917	12.688000
8.008460	-2.223785	12.735000
8.128593	-2.223827	12.780000
8.159940	-2.232841	12.961000
8.190547	-2.237698	13.008000
8.221409	-2.245651	13.054000
8.253066	-2.252778	13.100000
8.284428	-2.260751	13.147000
8.315595	-2.265853	13.193000
8.346258	-2.271601	13.240000
8.376642	-2.279499	13.287000
8.407522	-2.290971	13.333000
8.438486	-2.302525	13.379000
8.469789	-2.313224	13.426000
8.500482	-2.325292	13.473000
8.760285	-2.309279	13.519000
9.004861	-2.307340	13.907000
9.036118	-2.232642	14.276000
9.066928	-2.228441	14.322000
9.098540	-2.233954	14.368000
9.129218	-2.244707	14.415000
9.159927	-2.253786	14.461000
9.191566	-2.255480	14.507000
9.222475	-2.248610	14.554000
9.252812	-2.237212	14.599000
9.355702	-2.161206	14.646000
9.386544	-2.129197	14.801000
9.417124	-2.098203	14.846000
9.448710	-2.070820	14.893000
9.479464	-2.044458	14.940000
9.596291	-2.016036	14.986000
9.626975	-1.935226	15.161000
9.657263	-1.936127	15.207000
9.688226	-1.944621	15.253000
9.718976	-1.959053	15.300000
9.749752	-1.976731	15.346000
9.780573	-1.996392	15.392000
9.811487	-2.017696	15.438000
9.842177	-2.030760	15.483000
9.872068	-2.032760	15.529000
9.902139	-2.041191	15.575000
9.932393	-2.051112	15.620000
9.962862	-2.067181	15.666000
9.993109	-2.087023	15.711000
10.098231	-2.144078	15.757000
10.127705	-2.152754	15.913000
10.159069	-2.157206	15.959000
10.188558	-2.156106	16.006000
10.219852	-2.157248	16.052000
10.329438	-2.162908	16.098000
10.358394	-2.179856	16.260000
10.389761	-2.176682	16.306000
10.420698	-2.177314	16.352000
10.451674	-2.184233	16.397000
10.482286	-2.198040	16.444000
10.513709	-2.221230	16.489000
10.543012	-2.253742	16.536000
10.573502	-2.289043	16.582000
10.604037	-2.322524	16.628000
10.634925	-2.360466	16.673000
10.666216	-2.411491	16.720000
10.696742	-2.470293	16.766000
10.727672	-2.523795	16.811000
10.828702	-2.664835	16.857000
10.860785	-2.699615	17.012000
10.891417	-2.733052	17.059000
10.922776	-2.766307	17.105000
10.953172	-2.791291	17.151000
11.062088	-2.806564	17.197000
11.093945	-2.820060	17.361000
11.124796	-2.818862	17.408000
11.156601	-2.819943	17.454000
11.186228	-2.817429	17.500000
11.217994	-2.811927	17.547000
11.248199	-2.806213	17.593000
11.278817	-2.814165	17.639000
11.308642	-2.818703	17.685000
11.340285	-2.820379	17.732000
11.371035	-2.814080	17.777000
11.402422	-2.801686	17.823000
11.432921	-2.765215	17.869000
11.464070	-2.694611	17.915000
11.566180	-2.490434	17.961000
11.596772	-2.478079	18.116000
11.628765	-2.468304	18.163000
11.658494	-2.451433	18.209000
11.690228	-2.429379	18.255000
11.796885	-2.409563	18.302000
11.827705	-2.430034	18.461000
11.858972	-2.460815	18.508000
11.889686	-2.484247	18.554000
11.920509	-2.526628	18.600000
11.949652	-2.556015	18.645000
11.980354	-2.553244	18.691000
12.010207	-2.527653	18.737000
12.041892	-2.493153	18.783000
12.072611	-2.458120	18.828000
12.103788	-2.445816	18.874000
12.133396	-2.438139	18.920000
12.163656	-2.425054	18.966000
12.194291	-2.399743	19.012000
12.439916	-2.318027	19.059000
12.685067	-2.301864	19.426000
12.716356	-2.278140	19.795000
12.747328	-2.291980	19.841000
12.778382	-2.307727	19.887000
12.809775	-2.323677	19.933000
12.839992	-2.332204	19.980000
12.871874	-2.341864	20.025000
12.902259	-2.348182	20.072000
13.020639	-2.296626	20.118000
13.050850	-2.263836	20.295000
13.080419	-2.233542	20.342000
13.112303	-2.212671	20.388000
13.142878	-2.202206	20.434000
13.173506	-2.198451	20.480000
13.278233	-2.196862	20.526000
13.308348	-2.092826	20.682000
13.339304	-2.069039	20.728000
13.369140	-2.058951	20.773000
13.399939	-2.064949	20.820000
13.430858	-2.063147	20.866000
13.461953	-2.058028	20.913000
13.493381	-2.057099	20.958000
13.524215	-2.069103	21.005000
13.555148	-2.104769	21.052000
13.586531	-2.144862	21.098000
13.617366	-2.169751	21.145000
13.647027	-2.182896	21.191000
13.752780	-2.217516	21.236000
13.783951	-2.237940	21.396000
13.814501	-2.252342	21.442000
13.846101	-2.255744	21.488000
13.876780	-2.265044	21.535000
13.996369	-2.282299	21.581000
14.027239	-2.314145	21.761000
14.058996	-2.326816	21.808000
14.089913	-2.342319	21.854000
14.120400	-2.354781	21.899000
14.150425	-2.365650	21.946000
14.181171	-2.374354	21.992000
14.211937	-2.383867	22.038000
14.242615	-2.390949	22.084000
14.272873	-2.393974	22.130000
14.304260	-2.396307	22.176000
14.335398	-2.394629	22.223000
14.366526	-2.391757	22.269000
14.396609	-2.388585	22.315000
14.499819	-2.418062	22.361000
14.530215	-2.404259	22.516000
14.561317	-2.376010	22.562000
14.592841	-2.348852	22.608000
14.623298	-2.325671	22.654000
14.730836	-2.306182	22.701000
14.761531	-2.244548	22.861000
14.792168	-2.232736	22.906000
14.822932	-2.231843	22.953000
14.853081	-2.237589	23.000000
14.884021	-2.248059	23.046000
14.915406	-2.260868	23.093000
14.945973	-2.268618	23.139000
14.977062	-2.267897	23.186000
15.008466	-2.262456	23.232000
15.040070	-2.252809	23.278000
15.071511	-2.253221	23.324000
15.101269	-2.265703	23.371000
15.220823	-2.233308	23.417000
15.253119	-2.213149	23.596000
15.283233	-2.189820	23.642000
15.314355	-2.164876	23.688000
15.343318	-2.139243	23.735000
15.464647	-2.118819	23.780000
15.496582	-2.048973	23.961000
15.526428	-2.029890	24.008000
15.556730	-2.006611	24.054000
15.587002	-1.984229	24.100000
15.619172	-1.964322	24.147000
15.650208	-1.949105	24.193000
15.681485	-1.934577	24.239000
15.712355	-1.922321	24.286000
15.743065	-1.907062	24.332000
15.774649	-1.885758	24.378000
15.804013	-1.861663	24.424000
15.834410	-1.838533	24.470000
16.096778	-1.666292	24.517000
16.342200	-1.651509	24.908000
16.373137	-1.348908	25.276000
16.403345	-1.316111	25.323000
16.433983	-1.293148	25.368000
16.463597	-1.283300	25.414000
16.494805	-1.273237	25.460000
16.525429	-1.259531	25.507000
16.557150	-1.248614	25.553000
16.588318	-1.238100	25.600000
16.691763	-1.188671	25.646000
16.722264	-1.170394	25.800000
16.751886	-1.152761	25.846000
16.783493	-1.142350	25.893000
16.814316	-1.141006	25.939000
16.931214	-1.148115	25.985000
16.962787	-1.211582	26.162000
16.993163	-1.227576	26.208000
17.025129	-1.241144	26.254000
17.056110	-1.248624	26.301000
17.087128	-1.250241	26.347000
17.117328	-1.247248	26.393000
17.148550	-1.241863	26.440000
17.178982	-1.244328	26.486000
17.209895	-1.248063	26.533000
17.240252	-1.246255	26.579000
17.272136	-1.234259	26.625000
17.303285	-1.213423	26.671000
17.421336	-1.163898	26.718000
17.452450	-1.160799	26.896000
17.483189	-1.161189	26.942000
17.514597	-1.160841	26.988000
17.545740	-1.154198	27.034000
17.665704	-1.150654	27.080000
17.696570	-1.165665	27.261000
17.727608	-1.159128	27.308000
17.758215	-1.141304	27.354000
17.788468	-1.115240	27.399000
17.818478	-1.087346	27.446000
17.849796	-1.066475	27.492000
17.880662	-1.057611	27.538000
17.911892	-1.059743	27.585000
17.942163	-1.066963	27.631000
17.974114	-1.078373	27.677000
18.004727	-1.092656	27.724000
18.035801	-1.102296	27.769000
18.065457	-1.112435	27.815000
18.168630	-1.178158	27.862000
18.200025	-1.192552	28.017000
18.231187	-1.199576	28.063000
18.262105	-1.201512	28.109000
18.292893	-1.200920	28.155000
18.399107	-1.199980	28.201000
18.428894	-1.215562	28.362000
18.459862	-1.210408	28.407000
18.490732	-1.198277	28.454000
18.521825	-1.185128	28.500000
18.552917	-1.180421	28.547000
18.583944	-1.177988	28.592000
18.615033	-1.174760	28.639000
18.645979	-1.164098	28.685000
18.676964	-1.145376	28.731000
18.708332	-1.124949	28.778000
18.738651	-1.103654	28.824000
18.768566	-1.081535	28.871000
18.888766	-0.973961	28.917000
18.919051	-0.957664	29.096000
18.949615	-0.947833	29.142000
18.980507	-0.937175	29.188000
19.011780	-0.920158	29.234000
19.042752	-0.906297	29.280000
19.146694	-0.896148	29.327000
19.178016	-0.872379	29.482000
19.208317	-0.879413	29.529000
19.238888	-0.893640	29.575000
19.269078	-0.905141	29.621000
19.300851	-0.911844	29.667000
19.331787	-0.918078	29.714000
19.363158	-0.923370	29.760000
19.393940	-0.929753	29.807000
19.424739	-0.935797	29.853000
19.455646	-0.942742	29.899000
19.485732	-0.949616	29.945000
19.516633	-0.954409	29.992000
19.764394	-0.985214	30.038000
20.009761	-0.984395	30.408000
20.039006	-1.096102	30.776000
20.070032	-1.126015	30.822000
20.100015	-1.145237	30.867000
20.131611	-1.156271	30.913000
20.163000	-1.169946	30.960000
20.194028	-1.186819	31.006000
20.224145	-1.205529	31.052000
20.255432	-1.223187	31.098000
20.358000	-1.289053	31.144000
20.388851	-1.315531	31.299000
20.419858	-1.346805	31.345000
20.450273	-1.370377	31.392000
20.481869	-1.383622	31.438000
20.599958	-1.384047	31.485000
20.631259	-1.335641	31.662000
20.661912	-1.344621	31.708000
20.692500	-1.362510	31.755000
20.722851	-1.377060	31.801000
20.753401	-1.386994	31.847000
20.784909	-1.393603	31.893000
20.814651	-1.406348	31.939000
20.846355	-1.421457	31.985000
20.877247	-1.437772	32.031000
20.908324	-1.446741	32.078000
20.939807	-1.443709	32.124000
20.969988	-1.435660	32.170000
21.089604	-1.471133	32.217000
21.120872	-1.499413	32.396000
21.151294	-1.525553	32.442000
21.181725	-1.551759	32.488000
21.212232	-1.578805	32.535000
21.333924	-1.604720	32.581000
21.364163	-1.677655	32.762000
21.393237	-1.686686	32.807000
21.425123	-1.691860	32.853000
21.455651	-1.693256	32.900000
21.486998	-1.697805	32.946000
21.517240	-1.704988	32.991000
21.548990	-1.718528	33.038000
21.580018	-1.745354	33.084000
21.610431	-1.770572	33.131000
21.639920	-1.779564	33.177000
21.670963	-1.779628	33.223000
21.701968	-1.777029	33.270000
21.733366	-1.775366	33.316000
21.837077	-1.768991	33.363000
21.867608	-1.773604	33.517000
21.899357	-1.786359	33.564000
21.929634	-1.807017	33.610000
21.960278	-1.836358	33.656000
22.066067	-1.871736	33.703000
22.096283	-1.975785	33.862000
22.127717	-1.976126	33.908000
22.158981	-1.967738	33.955000
22.190584	-1.953550	34.001000
22.220981	-1.939794	34.047000
22.253200	-1.928067	34.094000
22.283807	-1.917335	34.140000
22.314906	-1.911865	34.187000
22.344414	-1.906583	34.233000
22.375221	-1.901164	34.279000
22.406485	-1.891852	34.326000
22.437766	-1.878936	34.372000
22.555532	-1.828013	34.418000
22.586522	-1.815236	34.596000
22.617828	-1.805491	34.642000
22.649309	-1.796900	34.689000
22.679922	-1.788725	34.735000
22.799718	-1.781545	34.781000
22.830752	-1.778120	34.962000
22.861920	-1.776816	35.008000
22.893510	-1.781400	35.054000
22.923823	-1.789880	35.100000
22.954590	-1.782722	35.146000
22.984761	-1.779013	35.192000
23.015399	-1.782428	35.239000
23.046353	-1.781769	35.285000
23.077260	-1.770434	35.331000
23.108313	-1.751877	35.378000
23.139629	-1.741693	35.424000
23.169711	-1.735578	35.470000
23.431106	-1.683291	35.516000
23.676128	-1.670778	35.909000
23.707338	-1.535075	36.276000
23.738147	-1.516856	36.323000
23.769055	-1.498035	36.369000
23.800508	-1.497282	36.415000
23.831964	-1.504419	36.461000
23.862815	-1.504724	36.508000
23.892448	-1.489944	36.554000
23.923537	-1.470686	36.600000
24.026651	-1.448702	36.647000
24.058314	-1.431966	36.802000
24.089454	-1.411332	36.849000
24.120174	-1.388597	36.895000
24.151382	-1.362914	36.941000
24.267343	-1.332032	36.986000
24.298325	-1.198298	37.162000
24.328763	-1.166487	37.208000
24.358962	-1.135136	37.255000
24.390253	-1.103494	37.300000
24.421431	-1.070856	37.347000
24.451959	-1.036655	37.393000
24.482956	-1.002359	37.440000
24.514168	-0.967694	37.486000
24.545131	-0.936073	37.532000
24.575159	-0.911015	37.578000
24.604981	-0.892902	37.624000
24.636733	-0.879583	37.671000
24.757413	-0.831939	37.716000
24.786762	-0.819255	37.896000
24.818051	-0.810760	37.942000
24.848095	-0.809617	37.988000
24.879324	-0.811321	38.034000
24.910490	-0.810465	38.080000
25.014676	-0.805344	38.126000
25.045819	-0.788242	38.282000
25.074517	-0.777442	38.329000
25.106284	-0.763626	38.375000
25.137490	-0.755674	38.421000
25.168827	-0.763818	38.467000
25.199208	-0.772830	38.514000
25.231317	-0.772334	38.561000
25.261672	-0.772132	38.607000
25.293253	-0.777339	38.653000
25.322299	-0.780319	38.699000
25.354266	-0.780882	38.746000
25.384354	-0.788295	38.792000
25.489931	-0.780120	38.838000
25.520551	-0.775232	38.995000
25.551304	-0.772504	39.042000
25.583379	-0.770599	39.089000
25.614151	-0.768102	39.135000
25.733911	-0.762527	39.182000
25.765315	-0.713816	39.362000
25.795494	-0.695813	39.408000
25.827424	-0.674554	39.455000
25.857991	-0.652572	39.501000
25.888767	-0.629986	39.547000
25.918018	-0.606041	39.593000
25.949228	-0.584897	39.639000
25.980585	-0.565573	39.686000
26.011879	-0.549793	39.732000
26.042406	-0.538373	39.779000
26.073791	-0.530440	39.825000
26.105420	-0.522033	39.871000
26.223637	-0.509094	39.918000
26.254774	-0.506094	40.096000
26.286171	-0.502520	40.142000
26.316645	-0.501514	40.188000
26.347715	-0.504779	40.235000
26.468434	-0.511376	40.281000
26.498511	-0.576402	40.462000
26.529811	-0.591672	40.508000
26.559925	-0.606253	40.554000
26.590701	-0.621672	40.600000
26.620943	-0.633570	40.647000
26.652543	-0.644269	40.693000
26.683458	-0.654831	40.739000
26.714612	-0.660227	40.785000
26.744820	-0.654863	40.832000
26.776374	-0.642050	40.877000
26.807432	-0.624502	40.924000
26.837741	-0.604641	40.971000
27.098577	-0.436134	41.017000
27.343872	-0.414334	41.408000
27.375134	-0.245805	41.776000
27.406523	-0.197537	41.822000
27.436450	-0.153763	41.867000
27.466561	-0.116082	41.914000
27.497016	-0.082087	41.961000
27.527985	-0.052438	42.006000
27.558926	-0.020940	42.052000
27.589775	0.014981	42.098000
27.692977	0.035346	42.144000
27.724404	0.010563	42.299000
27.754725	-0.006332	42.346000
27.784894	-0.007695	42.392000
27.815849	0.001432	42.438000
27.933648	0.018011	42.484000
27.964330	-0.015246	42.661000
27.996347	-0.028473	42.708000
28.026885	-0.037876	42.754000
28.057797	-0.035897	42.800000
28.089134	-0.026806	42.847000
28.120467	-0.016611	42.893000
28.150781	-0.011851	42.939000
28.180527	-0.023773	42.986000
28.211157	-0.043825	43.032000
28.242306	-0.051323	43.078000
28.273387	-0.040855	43.124000
28.304861	-0.015278	43.171000
28.423593	0.048610	43.217000
28.455051	0.040094	43.396000
28.485893	0.036129	43.443000
28.516815	0.039832	43.489000
28.548743	0.050547	43.536000
28.667652	0.063537	43.582000
28.698926	0.044571	43.762000
28.729819	0.049108	43.808000
28.759771	0.032933	43.853000
28.791135	0.003198	43.900000
28.821617	-0.026526	43.946000
28.851796	-0.053338	43.993000
28.882430	-0.081100	44.038000
28.913636	-0.105977	44.085000
28.944787	-0.122403	44.131000
28.976320	-0.131522	44.177000
29.006241	-0.133727	44.223000
29.037624	-0.130886	44.269000
29.068114	-0.126072	44.315000
29.170696	-0.113663	44.362000
29.201597	-0.112064	44.516000
29.232671	-0.108700	44.563000
29.264031	-0.107915	44.609000
29.295510	-0.102637	44.655000
29.401607	-0.094281	44.702000
29.432832	-0.073144	44.862000
29.463197	-0.081302	44.908000
29.493689	-0.093335	44.954000
29.523922	-0.108532	45.000000
29.554851	-0.120864	45.047000
29.585480	-0.126380	45.092000
29.616692	-0.127206	45.139000
29.647848	-0.125117	45.185000
29.678730	-0.125636	45.231000
29.709589	-0.129336	45.278000
29.740616	-0.134903	45.324000
29.770966	-0.141131	45.370000
29.801162	-0.148927	45.416000
29.904474	-0.144981	45.463000
29.936450	-0.134162	45.617000
29.966541	-0.121998	45.662000
29.997251	-0.108956	45.708000
30.027469	-0.097812	45.755000
30.132094	-0.094959	45.801000
30.162797	-0.101638	45.962000
30.192394	-0.099011	46.008000
30.224455	-0.095891	46.054000
30.255051	-0.089552	46.100000
30.286607	-0.081704	46.147000
30.317208	-0.067759	46.193000
30.348345	-0.047985	46.239000
30.379380	-0.035741	46.286000
30.409776	-0.036787	46.332000
30.440813	-0.043688	46.379000
30.471015	-0.048268	46.424000
30.502085	-0.043358	46.471000
30.764053	-0.006880	46.518000
31.008239	0.005993	46.909000
31.040085	-0.037083	47.276000
31.070494	-0.035071	47.323000
31.101295	-0.038863	47.370000
31.130949	-0.050643	47.416000
31.162972	-0.067174	47.462000
31.194320	-0.085745	47.509000
31.225909	-0.105031	47.555000
31.256178	-0.116709	47.602000
31.359605	-0.086052	47.648000
31.391076	-0.092593	47.802000
31.420867	-0.104438	47.849000
31.451751	-0.110536	47.895000
31.482049	-0.107767	47.942000
31.598407	-0.097366	47.988000
31.630385	-0.049869	48.162000
31.661352	-0.032502	48.208000
31.692710	-0.012774	48.255000
31.723098	-0.003527	48.301000
31.754419	-0.008170	48.348000
31.783970	-0.019087	48.394000
31.814815	-0.040761	48.440000
31.845324	-0.054885	48.486000
31.876786	-0.055691	48.533000
31.908340	-0.045480	48.579000
31.938638	-0.034882	48.626000
31.969497	-0.028027	48.671000
32.088335	0.038352	48.718000
32.119714	0.070305	48.896000
32.151170	0.102843	48.942000
32.181760	0.132680	48.989000
32.211545	0.157424	49.035000
32.333174	0.177395	49.081000
32.363685	0.210462	49.262000
32.394442	0.211054	49.308000
32.424588	0.210026	49.354000
32.455398	0.206357	49.401000
32.486090	0.203272	49.447000
32.517869	0.199709	49.494000
32.547861	0.192361	49.540000
32.580028	0.187387	49.586000
32.610685	0.183092	49.633000
32.642114	0.177426	49.679000
32.672464	0.169757	49.725000
32.703866	0.161570	49.772000
32.822533	0.120677	49.818000
32.852879	0.104812	49.995000
32.883866	0.087324	50.042000
32.913298	0.069309	50.089000
32.944554	0.051373	50.135000
32.975745	0.034372	50.181000
33.080017	0.019088	50.227000
33.111266	-0.032534	50.383000
33.141735	-0.045152	50.429000
33.172657	-0.054557	50.475000
33.203333	-0.063622	50.522000
33.234547	-0.069901	50.569000
33.264866	-0.079243	50.615000
33.295915	-0.089435	50.660000
33.327309	-0.100706	50.707000
33.357970	-0.114628	50.753000
33.388635	-0.128746	50.800000
33.419672	-0.139526	50.845000
33.450079	-0.149476	50.892000
33.555289	-0.172942	50.937000
33.586342	-0.188024	51.096000
33.617456	-0.214585	51.143000
33.648316	-0.240387	51.189000
33.679373	-0.262214	51.235000
33.799427	-0.275065	51.281000
33.830161	-0.293204	51.462000
33.860979	-0.300969	51.508000
33.892366	-0.315916	51.555000
33.923776	-0.331328	51.601000
33.954798	-0.347280	51.647000
33.985013	-0.356917	51.693000
34.016323	-0.361062	51.740000
34.046523	-0.358357	51.785000
34.077115	-0.351468	51.833000
34.107649	-0.340657	51.878000
34.139293	-0.329267	51.925000
34.170200	-0.318604	51.971000
34.430481	-0.217216	52.017000
34.676048	-0.214099	52.407000
34.706071	-0.278556	52.776000
34.737519	-0.280376	52.822000
34.768526	-0.279510	52.869000
34.799644	-0.277098	52.915000
34.830773	-0.272568	52.961000
34.862322	-0.267514	53.008000
34.893516	-0.266911	53.054000
34.923036	-0.266265	53.100000
35.026217	-0.257760	53.146000
35.056755	-0.242456	53.302000
35.088884	-0.222021	53.348000
35.119771	-0.201015	53.394000
35.150832	-0.183824	53.441000
35.267213	-0.168331	53.487000
35.297735	-0.092002	53.662000
35.329026	-0.070791	53.708000
35.358923	-0.047496	53.755000
35.389945	-0.022387	53.801000
35.419802	0.001243	53.847000
35.452065	0.020738	53.893000
35.482365	0.040679	53.939000
35.514059	0.056935	53.986000
35.544997	0.074164	54.032000
35.576176	0.091714	54.078000
35.606564	0.107780	54.125000
35.636115	0.122432	54.171000
35.756453	0.187217	54.217000
35.787974	0.202698	54.396000
35.817998	0.217408	54.443000
35.848551	0.232400	54.489000
35.878674	0.245881	54.535000
35.998785	0.255126	54.582000
36.030460	0.205957	54.762000
36.061448	0.181863	54.808000
36.092589	0.156374	54.855000
36.122735	0.128970	54.901000
36.154579	0.101509	54.947000
36.185801	0.078017	54.993000
36.216550	0.058365	55.040000
36.246788	0.047564	55.086000
36.277899	0.044961	55.132000
36.308379	0.048674	55.178000
36.338786	0.054906	55.225000
36.369689	0.058407	55.271000
36.489032	0.036637	55.317000
36.520653	0.023722	55.497000
36.551591	0.010637	55.543000
36.582486	-0.001593	55.589000
36.613769	-0.011387	55.636000
36.733401	-0.022939	55.682000
36.764173	-0.047271	55.862000
36.795648	-0.042404	55.908000
36.825176	-0.032818	55.954000
36.857358	-0.026047	56.000000
36.888318	-0.025106	56.047000
36.919279	-0.022960	56.093000
36.948630	-0.018094	56.140000
36.979970	-0.009167	56.185000
37.010620	0.002535	56.231000
37.041511	0.022187	56.277000
37.071761	0.043756	56.323000
37.102637	0.069977	56.368000
37.133179	0.101194	56.414000
37.235499	0.214853	56.460000
37.266890	0.246338	56.615000
37.297797	0.268541	56.662000
37.329233	0.278774	56.708000
37.360159	0.284364	56.755000
37.467094	0.289919	56.801000
37.498669	0.331055	56.962000
37.529530	0.352996	57.008000
37.560160	0.379337	57.054000
37.590728	0.405174	57.101000
37.620483	0.427546	57.147000
37.651182	0.447941	57.193000
37.682638	0.467837	57.239000
37.713249	0.490952	57.285000
37.744390	0.508497	57.331000
37.775227	0.521741	57.377000
37.806887	0.533514	57.424000
37.837440	0.542421	57.470000
38.098516	0.545351	57.517000
38.343557	0.544947	57.909000
38.374487	0.602704	58.276000
38.406028	0.614761	58.323000
38.437169	0.619616	58.369000
38.467941	0.619501	58.415000
38.498121	0.613762	58.462000
38.529243	0.607992	58.508000
38.559478	0.600526	58.555000
38.590185	0.593098	58.600000
38.694465	0.574377	58.647000
38.725548	0.574586	58.802000
38.756846	0.578882	58.848000
38.788095	0.586341	58.895000
38.817991	0.595542	58.941000
38.934146	0.608776	58.987000
38.964669	0.669509	59.161000
38.995525	0.688511	59.208000
39.026325	0.705170	59.255000
39.057592	0.719223	59.300000
39.088238	0.733890	59.347000
39.119598	0.748939	59.392000
39.150720	0.764482	59.439000
39.181396	0.781906	59.486000
39.210605	0.797655	59.532000
39.242022	0.811035	59.578000
39.272748	0.821599	59.624000
39.304423	0.830756	59.671000
39.423563	0.860227	59.717000
39.453417	0.868393	59.896000
39.484938	0.877626	59.942000
39.515807	0.886132	59.988000
39.546660	0.893378	60.034000
39.578173	0.899366	60.080000
39.680732	0.905523	60.127000
39.711985	0.926593	60.283000
39.742953	0.937962	60.329000
39.774443	0.945060	60.375000
39.804428	0.945769	60.422000
39.836887	0.936671	60.468000
39.867190	0.926182	60.515000
39.899034	0.921475	60.561000
39.928866	0.920818	60.608000
39.960955	0.924827	60.654000
39.991263	0.932124	60.701000
40.021939	0.941612	60.747000
40.051843	0.955098	60.794000
40.156595	0.968173	60.840000
40.188290	0.938651	60.997000
40.219150	0.900605	61.042000
40.250591	0.875797	61.089000
40.280180	0.859381	61.135000
40.400945	0.853625	61.181000
40.432216	0.822872	61.361000
40.462989	0.806922	61.408000
40.494318	0.777535	61.455000
40.524402	0.749936	61.501000
40.555059	0.744263	61.547000
40.585674	0.755385	61.593000
40.617149	0.767570	61.640000
40.647941	0.780326	61.686000
40.679416	0.791365	61.733000
40.710465	0.809677	61.779000
40.741303	0.833370	61.825000
40.772766	0.847893	61.872000
40.891268	0.794354	61.918000
40.921568	0.798881	62.096000
40.953016	0.811651	62.142000
40.982632	0.826745	62.189000
41.013070	0.840645	62.234000
41.044081	0.850760	62.281000
41.148852	0.852070	62.327000
41.180408	0.835636	62.483000
41.210900	0.838953	62.529000
41.240996	0.854925	62.574000
41.271657	0.866287	62.621000
41.302299	0.865230	62.667000
41.332733	0.851594	62.713000
41.364227	0.833981	62.760000
41.394723	0.821248	62.806000
41.426444	0.813009	62.852000
41.456314	0.805946	62.898000
41.488450	0.803274	62.944000
41.519472	0.809984	62.991000
41.766433	0.888395	63.038000
42.012035	0.890075	63.408000
42.043222	0.922783	63.777000
42.073729	0.927227	63.822000
42.103810	0.930801	63.869000
42.134163	0.934702	63.915000
42.164229	0.942435	63.960000
42.196046	0.953647	64.007000
42.226618	0.964926	64.053000
42.257444	0.974351	64.098000
42.360472	1.015849	64.145000
42.390441	1.022713	64.300000
42.421102	1.025231	64.346000
42.452454	1.034581	64.391000
42.483330	1.048802	64.437000
42.602401	1.060466	64.484000
42.632535	1.090243	64.662000
42.663500	1.090806	64.708000
42.694963	1.088175	64.755000
42.725859	1.075037	64.801000
42.756420	1.049025	64.847000
42.786101	1.028764	64.893000
42.817211	1.014643	64.939000
42.847933	1.003619	64.985000
42.879351	0.993537	65.032000
42.910000	0.994626	65.078000
42.940999	1.003683	65.124000
42.971522	1.022266	65.170000
43.002344	1.047337	65.216000
43.104983	1.159927	65.262000
43.135517	1.191016	65.417000
43.166555	1.218460	65.463000
43.197523	1.240919	65.509000
43.228276	1.260772	65.556000
43.335141	1.284530	65.602000
43.366348	1.395744	65.762000
43.397266	1.428863	65.808000
43.428299	1.458662	65.855000
43.458265	1.485145	65.900000
43.488257	1.506544	65.947000
43.519725	1.524233	65.992000
43.550597	1.538506	66.039000
43.582011	1.548919	66.086000
43.612526	1.549365	66.132000
43.644151	1.536925	66.178000
43.674731	1.520010	66.225000
43.705714	1.508474	66.271000
43.825311	1.455593	66.317000
43.856341	1.451985	66.497000
43.887624	1.454746	66.542000
43.917839	1.463854	66.589000
43.948112	1.479853	66.636000
44.068965	1.507009	66.683000
44.099369	1.610161	66.862000
44.129495	1.635502	66.908000
44.159899	1.650223	66.954000
44.190533	1.650942	67.000000
44.222066	1.646521	67.046000
44.253407	1.654169	67.093000
44.284463	1.668661	67.139000
44.314963	1.683105	67.185000
44.346511	1.695026	67.231000
44.375992	1.697178	67.277000
44.406300	1.701502	67.322000
44.436015	1.713001	67.369000
44.467994	1.735025	67.415000
44.571736	1.826266	67.461000
44.602731	1.852383	67.616000
44.632842	1.876861	67.662000
44.662965	1.898016	67.708000
44.694110	1.915579	67.755000
44.800845	1.925527	67.801000
44.832378	1.845963	67.962000
44.862828	1.813057	68.007000
44.894706	1.791793	68.055000
44.925644	1.784276	68.101000
44.956942	1.778309	68.147000
44.987484	1.774131	68.193000
45.017449	1.778086	68.238000
45.048410	1.786138	68.285000
45.079536	1.799568	68.331000
45.110677	1.814146	68.378000
45.140807	1.832889	68.424000
45.172617	1.860982	68.471000
45.203604	1.886297	68.516000
45.677412	1.864812	68.563000
45.708534	1.847719	69.274000
45.739087	1.854330	69.320000
45.770881	1.859672	69.367000
45.801846	1.866326	69.413000
45.833094	1.875634	69.460000
45.862906	1.887789	69.506000
45.894938	1.898821	69.552000
45.925622	1.907713	69.599000
46.027924	1.931040	69.645000
46.059088	1.940311	69.800000
46.089549	1.947753	69.846000
46.121393	1.955981	69.893000
46.152645	1.962186	69.939000
46.269926	1.963214	69.985000
46.301182	1.929821	70.162000
46.331366	1.920671	70.208000
46.362876	1.913144	70.254000
46.392761	1.911573	70.301000
46.423752	1.911487	70.347000
46.454267	1.913779	70.393000
46.485773	1.912304	70.440000
46.516615	1.908192	70.486000
46.547502	1.900481	70.532000
46.578716	1.892578	70.577000
46.610003	1.886615	70.625000
46.640660	1.882976	70.671000
46.760530	1.866855	70.717000
46.791325	1.858552	70.897000
46.822504	1.849389	70.943000
46.852708	1.839596	70.990000
46.883354	1.825918	71.036000
47.004045	1.813532	71.083000
47.033012	1.746617	71.262000
47.064211	1.726022	71.308000
47.094683	1.703428	71.354000
47.126270	1.680825	71.401000
47.157050	1.663106	71.447000
47.188594	1.650276	71.493000
47.219482	1.640296	71.540000
47.250504	1.627530	71.586000
47.281072	1.617825	71.632000
47.312167	1.609841	71.678000
47.342448	1.603035	71.724000
47.373001	1.595133	71.771000
47.492640	1.597922	71.817000
47.522394	1.599334	71.996000
47.553808	1.601220	72.042000
47.584999	1.607169	72.088000
47.615994	1.619291	72.135000
47.736306	1.632925	72.181000
47.767201	1.694400	72.362000
47.798111	1.710767	72.407000
47.829629	1.726509	72.455000
47.860290	1.743116	72.500000
47.891869	1.752615	72.548000
47.922514	1.754921	72.594000
47.953690	1.756031	72.641000
47.984251	1.756527	72.687000
48.014796	1.755746	72.733000
48.045522	1.752615	72.778000
48.076652	1.747602	72.826000
48.107555	1.744237	72.871000
48.226502	1.750057	72.918000
48.257232	1.765150	73.097000
48.288247	1.782129	73.142000
48.318904	1.798542	73.189000
48.349599	1.811383	73.235000
48.470049	1.819867	73.281000
48.501267	1.859566	73.462000
48.532546	1.860009	73.509000
48.563384	1.857324	73.554000
48.593941	1.863659	73.601000
48.625028	1.871318	73.647000
48.655735	1.871054	73.694000
48.685746	1.869118	73.740000
48.716380	1.869466	73.785000
48.747825	1.871647	73.832000
48.778697	1.878734	73.878000
48.809976	1.886477	73.925000
48.840937	1.892961	73.971000
49.101218	1.947859	74.017000
49.346677	1.961210	74.409000
49.377246	2.098537	74.777000
49.408940	2.107073	74.823000
49.439943	2.112781	74.869000
49.471572	2.118687	74.916000
49.502567	2.122830	74.962000
49.532959	2.129097	75.009000
49.564300	2.137749	75.055000
49.594695	2.143545	75.102000
49.698107	2.125750	75.147000
49.729175	2.119565	75.302000
49.760658	2.116578	75.349000
49.790835	2.114785	75.396000
49.822760	2.119203	75.441000
49.938488	2.122632	75.489000
49.968784	2.166956	75.662000
49.999237	2.180166	75.709000
50.028899	2.192924	75.754000
50.060962	2.207364	75.801000
50.092080	2.218428	75.848000
50.123348	2.231268	75.894000
50.154623	2.241169	75.941000
50.185592	2.250213	75.987000
50.215726	2.257868	76.032000
50.245834	2.263646	76.078000
50.276352	2.270002	76.125000
50.307309	2.275873	76.171000
50.427521	2.284315	76.217000
50.458189	2.285499	76.397000
50.488212	2.285170	76.443000
50.520072	2.284938	76.490000
50.551309	2.288926	76.536000
50.670149	2.295949	76.583000
50.701359	2.214258	76.762000
50.732112	2.179923	76.809000
50.763991	2.155594	76.855000
50.794698	2.150092	76.901000
50.825658	2.136109	76.948000
50.856423	2.100713	76.994000
50.887564	2.053522	77.040000
50.918271	2.006736	77.086000
50.948090	1.956003	77.133000
50.978417	1.909705	77.179000
51.009927	1.868388	77.225000
51.041183	1.833218	77.271000
51.160434	1.747908	77.317000
51.191049	1.742332	77.496000
51.222466	1.727186	77.543000
51.253023	1.708791	77.589000
51.285086	1.687126	77.636000
51.404864	1.658079	77.682000
51.434699	1.535283	77.862000
51.466312	1.501538	77.908000
51.496846	1.464056	77.954000
51.528748	1.423637	78.000000
51.557430	1.382436	78.047000
51.588956	1.345016	78.093000
51.619563	1.309840	78.140000
51.650373	1.280116	78.186000
51.681315	1.254706	78.232000
51.712705	1.234047	78.277000
51.744142	1.220519	78.324000
51.774611	1.217399	78.370000
51.804838	1.223327	78.417000
51.907420	1.229552	78.463000
51.938522	1.247707	78.618000
51.969237	1.272827	78.663000
52.000904	1.292853	78.709000
52.031273	1.309155	78.756000
52.137831	1.317956	78.803000
52.169049	1.317733	78.962000
52.199545	1.314781	79.008000
52.230271	1.310223	79.054000
52.260474	1.304395	79.101000
52.291577	1.294619	79.147000
52.322269	1.288313	79.193000
52.353306	1.278531	79.239000
52.383448	1.269191	79.285000
52.415534	1.262629	79.331000
52.446349	1.262821	79.378000
52.476848	1.265169	79.424000
52.506487	1.267430	79.470000
52.769269	1.130878	79.517000
53.014825	1.120805	79.909000
53.045823	1.045524	80.277000
53.076596	1.018406	80.323000
53.107022	0.979204	80.369000
53.138106	0.937082	80.416000
53.168809	0.894754	80.462000
53.199481	0.858248	80.508000
53.229896	0.827516	80.555000
53.261191	0.802390	80.601000
53.364913	0.748768	80.647000
53.396327	0.738702	80.801000
53.426777	0.724072	80.848000
53.456366	0.708533	80.894000
53.487484	0.690367	80.941000
53.604146	0.669245	80.987000
53.635671	0.578786	81.162000
53.666455	0.555038	81.208000
53.697300	0.529577	81.254000
53.728433	0.504581	81.301000
53.759620	0.481336	81.347000
53.789905	0.455755	81.392000
53.818894	0.432401	81.439000
53.850477	0.410460	81.485000
53.881660	0.392423	81.532000
53.913013	0.381848	81.578000
53.943612	0.375813	81.624000
53.974776	0.376472	81.669000
54.005472	0.386896	81.716000
54.108868	0.398276	81.763000
54.138833	0.404457	81.917000
54.169356	0.433490	81.964000
54.201023	0.460962	82.010000
54.232191	0.464622	82.057000
54.338649	0.454468	82.102000
54.369456	0.422278	82.262000
54.400163	0.432465	82.308000
54.431435	0.438240	82.355000
54.462034	0.441613	82.401000
54.492080	0.439307	82.446000
54.522576	0.427081	82.493000
54.553398	0.405774	82.540000
54.584962	0.387893	82.586000
54.616053	0.365507	82.633000
54.646130	0.339709	82.679000
54.678139	0.321259	82.725000
54.708977	0.312159	82.771000
54.828147	0.255987	82.817000
54.859538	0.248191	82.997000
54.889307	0.246391	83.043000
54.921659	0.249719	83.089000
54.951436	0.254556	83.136000
55.071935	0.248021	83.182000
55.103226	0.206495	83.362000
55.132608	0.198681	83.408000
55.163814	0.193473	83.455000
55.194137	0.188121	83.501000
55.225943	0.183147	83.547000
55.257022	0.184905	83.594000
55.288267	0.193792	83.640000
55.319162	0.200653	83.687000
55.350461	0.202180	83.732000
55.381002	0.199593	83.779000
55.411921	0.195467	83.826000
55.442747	0.189496	83.872000
55.562144	0.192233	83.918000
55.591798	0.196328	84.096000
55.623085	0.197111	84.143000
55.653220	0.190549	84.189000
55.684395	0.194279	84.235000
55.805686	0.206010	84.282000
55.834833	0.186912	84.462000
55.866608	0.184568	84.509000
55.897500	0.184714	84.555000
55.928733	0.184746	84.602000
55.959129	0.182140	84.647000
55.991153	0.189201	84.694000
56.021837	0.201406	84.741000
56.052825	0.217440	84.787000
56.083785	0.236252	84.833000
56.114423	0.243696	84.880000
56.144527	0.240261	84.926000
56.175391	0.239158	84.972000
56.436874	0.349082	85.019000
56.682603	0.365848	85.409000
56.713268	0.356462	85.777000
56.744309	0.348976	85.824000
56.774151	0.344511	85.870000
56.805119	0.354764	85.916000
56.835965	0.372941	85.963000
56.867820	0.382061	86.009000
56.898254	0.390089	86.056000
56.929787	0.403130	86.102000
57.033157	0.352762	86.148000
57.063810	0.344385	86.303000
57.094855	0.333376	86.350000
57.125408	0.323209	86.397000
57.156422	0.309773	86.443000
57.272266	0.298247	86.488000
57.303415	0.268967	86.662000
57.334940	0.265489	86.709000
57.365812	0.265942	86.755000
57.396346	0.272083	86.801000
57.426819	0.280078	86.848000
57.457287	0.290259	86.893000
57.488152	0.304925	86.941000
57.519162	0.323875	86.987000
57.550872	0.346409	87.033000
57.581990	0.367893	87.079000
57.612320	0.380216	87.126000
57.643976	0.392061	87.173000
57.762313	0.463710	87.219000
57.793465	0.486539	87.397000
57.824092	0.498540	87.443000
57.853734	0.505776	87.489000
57.884230	0.514960	87.534000
57.915129	0.528594	87.581000
58.019839	0.542705	87.626000
58.050754	0.593616	87.783000
58.082144	0.606530	87.829000
58.113574	0.626889	87.876000
58.144469	0.645448	87.923000
58.175387	0.649413	87.969000
58.205018	0.647101	88.016000
58.235387	0.650622	88.062000
58.266152	0.656868	88.107000
58.297204	0.660304	88.154000
58.327988	0.655014	88.199000
58.359559	0.639719	88.247000
58.390916	0.616190	88.293000
58.495968	0.557336	88.339000
58.526532	0.554108	88.497000
58.556986	0.556709	88.543000
58.587063	0.556656	88.589000
58.617992	0.553356	88.635000
58.648626	0.549856	88.681000
58.753448	0.552944	88.727000
58.784213	0.548554	88.883000
58.814570	0.542418	88.928000
58.845284	0.537881	88.976000
58.875792	0.538632	89.022000
58.907248	0.534305	89.068000
58.938058	0.522841	89.115000
58.969372	0.508961	89.161000
59.000483	0.499461	89.208000
59.032146	0.486961	89.253000
59.062853	0.489064	89.301000
59.094132	0.502180	89.347000
59.124847	0.507365	89.394000
59.228251	0.478733	89.440000
59.259407	0.477474	89.597000
59.289550	0.479144	89.643000
59.321686	0.480307	89.689000
59.352600	0.478203	89.736000
59.471986	0.470472	89.782000
59.503976	0.430209	89.962000
59.534364	0.441879	90.009000
59.565608	0.460262	90.055000
59.596143	0.480424	90.101000
59.626150	0.504762	90.147000
59.657437	0.522196	90.193000
59.687749	0.539002	90.240000
59.718601	0.555821	90.286000
59.748882	0.569002	90.332000
59.780108	0.574132	90.378000
59.811744	0.574958	90.424000
59.842977	0.582321	90.470000
59.872866	0.597659	90.517000
60.343482	0.707746	90.563000
60.375199	0.781352	91.275000
60.406152	0.788680	91.321000
60.437850	0.791141	91.368000
60.468076	0.795658	91.414000
60.499613	0.798149	91.460000
60.530750	0.800408	91.507000
60.561331	0.803198	91.553000
60.590451	0.806133	91.599000
60.694335	0.814436	91.645000
60.725983	0.825740	91.800000
60.756621	0.847320	91.846000
60.788042	0.858227	91.892000
60.818273	0.862934	91.939000
60.936518	0.884723	91.985000
60.968415	0.913064	92.162000
60.998427	0.911667	92.209000
61.028312	0.898329	92.255000
61.058581	0.879361	92.301000
61.090175	0.859273	92.347000
61.121028	0.836649	92.393000
61.152442	0.813143	92.439000
61.183168	0.796909	92.486000
61.213948	0.791903	92.531000
61.245012	0.791194	92.578000
61.275500	0.785744	92.624000
61.305439	0.776410	92.670000
61.336599	0.768638	92.717000
61.440679	0.718818	92.763000
61.471762	0.710452	92.918000
61.502711	0.707618	92.964000
61.533422	0.707820	93.011000
61.563933	0.703612	93.057000
61.669880	0.695522	93.103000
61.700299	0.638851	93.262000
61.731287	0.611301	93.309000
61.761994	0.588253	93.355000
61.793257	0.569942	93.401000
61.824702	0.560656	93.447000
61.855885	0.560032	93.493000
61.885978	0.558095	93.540000
61.917268	0.550164	93.586000
61.947906	0.538980	93.633000
61.977929	0.533184	93.679000
62.008125	0.531482	93.725000
62.039701	0.545382	93.771000
62.159117	0.582436	93.818000
62.189808	0.580098	93.997000
62.220961	0.576881	94.042000
62.251491	0.587185	94.089000
62.282021	0.593403	94.134000
62.313839	0.591044	94.180000
62.416194	0.584010	94.227000
62.447100	0.644250	94.382000
62.477512	0.662988	94.428000
62.508802	0.682064	94.475000
62.540001	0.687546	94.521000
62.571015	0.676782	94.567000
62.602210	0.652373	94.614000
62.632660	0.625425	94.660000
62.663413	0.599656	94.706000
62.693862	0.576671	94.752000
62.723835	0.555134	94.799000
62.755023	0.536568	94.845000
62.786360	0.517815	94.891000
62.893271	0.502435	94.937000
62.924281	0.523316	95.097000
62.955096	0.546078	95.144000
62.986118	0.569183	95.190000
63.017136	0.591437	95.236000
63.137359	0.603571	95.282000
63.168339	0.678935	95.462000
63.199057	0.705467	95.509000
63.230475	0.723731	95.555000
63.261186	0.730889	95.602000
63.292008	0.731896	95.648000
63.321320	0.724114	95.694000
63.352680	0.689212	95.741000
63.383706	0.613275	95.787000
63.415477	0.560656	95.833000
63.446161	0.525760	95.880000
63.477859	0.497965	95.926000
63.508881	0.464758	95.973000
63.768086	-0.274218	96.019000
64.013500	-0.266815	96.410000
64.044910	-0.115837	96.777000
64.075905	-0.182235	96.824000
64.107092	-0.248564	96.870000
64.137737	-0.313664	96.916000
64.169067	-0.375026	96.963000
64.200373	-0.434083	97.010000
64.229970	-0.488035	97.056000
64.260396	-0.531681	97.102000
64.364979	-0.626009	97.149000
64.395202	-0.646805	97.303000
64.427066	-0.664946	97.349000
64.457918	-0.680811	97.396000
64.488798	-0.695073	97.442000
64.603943	-0.709871	97.489000
64.633631	-0.771899	97.662000
64.665887	-0.776396	97.709000
64.696843	-0.783387	97.756000
64.727923	-0.789417	97.802000
64.759394	-0.791659	97.848000
64.790528	-0.790666	97.895000
64.820777	-0.793436	97.941000
64.851511	-0.794568	97.987000
64.882591	-0.790825	98.033000
64.912810	-0.781220	98.079000
64.943551	-0.767203	98.126000
64.973663	-0.753029	98.172000
65.092756	-0.652625	98.218000
65.124650	-0.613556	98.397000
65.155346	-0.572073	98.443000
65.187048	-0.530918	98.489000
65.217382	-0.488832	98.536000
65.336437	-0.450382	98.582000
65.368416	-0.357722	98.762000
65.399311	-0.339632	98.808000
65.430490	-0.315715	98.854000
65.460832	-0.291789	98.901000
65.492188	-0.268443	98.947000
65.522669	-0.241607	98.993000
65.552980	-0.200758	99.040000
65.583291	-0.155318	99.086000
65.615047	-0.117652	99.133000
65.646242	-0.078394	99.179000
65.677214	-0.040634	99.226000
65.708247	-0.013948	99.272000
65.827410	0.142689	99.317000
65.858167	0.175649	99.497000
65.889869	0.201121	99.543000
65.919880	0.216560	99.589000
65.951137	0.223356	99.636000
66.071782	0.227441	99.682000
66.102462	0.181090	99.862000
66.133649	0.154324	99.909000
66.163845	0.144442	99.955000
66.194764	0.139884	100.002000
66.225636	0.129370	100.048000
66.255847	0.113420	100.094000
66.286381	0.094294	100.141000
66.318245	0.082911	100.187000
66.349547	0.075856	100.233000
66.379881	0.075867	100.279000
66.410700	0.077254	100.325000
66.442179	0.072706	100.372000
66.561387	0.002194	100.417000
66.592552	-0.019035	100.597000
66.623132	-0.035826	100.643000
66.653020	-0.047559	100.690000
66.683424	-0.051302	100.736000
66.805014	-0.051642	100.782000
66.836148	-0.088120	100.962000
66.865422	-0.085044	101.009000
66.896901	-0.077006	101.055000
66.927742	-0.070582	101.102000
66.958906	-0.067061	101.148000
66.989548	-0.068576	101.195000
67.021849	-0.073241	101.242000
67.053098	-0.081335	101.288000
67.083939	-0.089255	101.334000
67.114350	-0.086422	101.381000
67.145438	-0.074939	101.427000
67.175810	-0.059712	101.473000
67.436172	0.130524	101.519000
67.681436	0.162214	101.910000
67.712515	0.377257	102.277000
67.743825	0.397512	102.324000
67.774574	0.413879	102.370000
67.804571	0.436178	102.416000
67.834813	0.461267	102.463000
67.866645	0.493172	102.510000
67.897817	0.534762	102.555000
67.928643	0.584869	102.602000
68.031709	0.749062	102.647000
68.061759	0.785021	102.802000
68.093115	0.809601	102.849000
68.123511	0.823430	102.894000
68.154268	0.834478	102.941000
68.271156	0.857198	102.988000
68.302174	0.949364	103.163000
68.333377	0.975290	103.209000
68.364418	0.997640	103.255000
68.395298	1.021228	103.301000
68.425402	1.036420	103.347000
68.457180	1.042553	103.394000
68.486815	1.052948	103.439000
68.518517	1.061694	103.487000
68.548360	1.068174	103.533000
68.579593	1.080146	103.579000
68.610972	1.096997	103.625000
68.641983	1.113210	103.671000
68.761630	1.142552	103.717000
68.792371	1.152479	103.897000
68.823912	1.161103	103.944000
68.854745	1.167506	103.990000
68.885395	1.181017	104.036000
69.005564	1.206763	104.082000
69.036690	1.261467	104.263000
69.067700	1.271412	104.309000
69.097704	1.281524	104.355000
69.128384	1.293743	104.401000
69.159248	1.315395	104.448000
69.190098	1.346293	104.494000
69.221085	1.365923	104.541000
69.251289	1.379580	104.587000
69.283490	1.394633	104.632000
69.313755	1.403994	104.679000
69.344988	1.409030	104.725000
69.374086	1.421626	104.771000
69.494516	1.489406	104.817000
69.526495	1.487573	104.997000
69.556629	1.482066	105.043000
69.587939	1.480032	105.090000
69.617613	1.484347	105.136000
69.738735	1.496192	105.183000
69.770037	1.596830	105.363000
69.799811	1.610000	105.409000
69.830759	1.630401	105.455000
69.861831	1.659755	105.502000
69.892865	1.695109	105.548000
69.923706	1.726433	105.594000
69.955009	1.750106	105.640000
69.985635	1.772225	105.686000
70.016699	1.796531	105.733000
70.047410	1.817188	105.779000
70.077122	1.837733	105.825000
70.108201	1.843826	105.872000
70.228670	1.776542	105.918000
70.258282	1.786222	106.097000
70.289431	1.817711	106.143000
70.319950	1.852859	106.189000
70.351905	1.876649	106.235000
70.471706	1.893869	106.282000
70.502340	1.966365	106.463000
70.533757	1.990743	106.509000
70.563869	2.016397	106.555000
70.595317	2.039992	106.602000
70.626789	2.042017	106.648000
70.657768	2.030661	106.693000
70.688141	2.031551	106.740000
70.719190	2.057573	106.786000
70.749931	2.091189	106.833000
70.780319	2.105991	106.880000
70.811752	2.112259	106.926000
70.842747	2.126980	106.973000
71.103801	2.351795	107.019000
71.349233	2.350778	107.409000
71.378607	2.187431	107.776000
71.409979	2.164783	107.823000
71.440221	2.138020	107.870000
71.472299	2.115343	107.916000
71.503079	2.098165	107.963000
71.534827	2.083340	108.009000
71.566337	2.077273	108.056000
71.597355	2.079195	108.102000
71.699092	2.117498	108.149000
71.729372	2.133166	108.302000
71.760337	2.150081	108.349000
71.791800	2.165132	108.395000
71.822588	2.191091	108.442000
71.939822	2.225415	108.487000
71.970341	2.266298	108.662000
72.001213	2.293610	108.709000
72.031947	2.327271	108.755000
72.062803	2.356503	108.801000
72.092938	2.366046	108.847000
72.124071	2.356865	108.894000
72.155328	2.344509	108.940000
72.186184	2.340024	108.986000
72.216849	2.333341	109.032000
72.248451	2.320479	109.078000
72.279608	2.298179	109.125000
72.309949	2.269292	109.171000
72.429773	2.160404	109.218000
72.459508	2.140348	109.397000
72.490703	2.121518	109.443000
72.520753	2.097720	109.489000
72.551533	2.076300	109.536000
72.673323	2.063278	109.582000
72.702820	2.028559	109.763000
72.733608	2.034476	109.809000
72.764311	2.046016	109.855000
72.795344	2.054085	109.901000
72.826139	2.058453	109.947000
72.857058	2.067826	109.993000
72.888752	2.077870	110.038000
72.920001	2.089874	110.086000
72.949943	2.100266	110.132000
72.980946	2.112567	110.178000
73.010135	2.124672	110.224000
73.041099	2.148981	110.269000
73.072148	2.182462	110.316000
73.175844	2.258558	110.362000
73.207247	2.265770	110.517000
73.238034	2.267749	110.563000
73.267761	2.269324	110.610000
73.297712	2.273310	110.656000
73.404673	2.279723	110.702000
73.436421	2.299725	110.863000
73.467470	2.304897	110.909000
73.498749	2.310015	110.955000
73.529176	2.319021	111.002000
73.561277	2.327946	111.048000
73.592564	2.335860	111.095000
73.623505	2.345201	111.141000
73.652749	2.353877	111.188000
73.684435	2.365444	111.234000
73.714723	2.377374	111.280000
73.745918	2.389028	111.327000
73.776299	2.398677	111.373000
73.894678	2.419949	111.420000
73.926541	2.421984	111.597000
73.957621	2.424518	111.643000
73.988585	2.428865	111.689000
74.019372	2.434530	111.736000
74.139388	2.441919	111.781000
74.171029	2.438313	111.963000
74.201724	2.446587	112.009000
74.232535	2.465390	112.056000
74.263875	2.480278	112.102000
74.294571	2.493353	112.148000
74.324237	2.510384	112.194000
74.354287	2.534095	112.240000
74.386596	2.575464	112.287000
74.417037	2.620567	112.333000
74.448701	2.647233	112.380000
74.479081	2.656425	112.426000
74.510553	2.657672	112.472000
74.770384	2.803504	112.518000
75.015832	2.821266	112.910000
75.047181	3.093560	113.277000
75.077123	3.148331	113.324000
75.110154	3.212372	113.370000
75.140711	3.277258	113.417000
75.171776	3.332233	113.463000
75.202041	3.367926	113.508000
75.232874	3.392432	113.555000
75.262940	3.419845	113.601000
75.367227	3.563866	113.647000
75.398276	3.608502	113.803000
75.428441	3.659053	113.849000
75.460904	3.707833	113.895000
75.491492	3.758417	113.941000
75.607758	3.808501	113.988000
75.638254	3.951336	114.163000
75.667489	3.960453	114.209000
75.699667	3.965692	114.255000
75.730386	3.985385	114.301000
75.761773	4.021054	114.347000
75.791877	4.057071	114.394000
75.823571	4.086520	114.440000
75.855158	4.114865	114.487000
75.885822	4.142681	114.533000
75.915388	4.177169	114.579000
75.946352	4.211927	114.625000
75.977079	4.245416	114.672000
76.097040	4.332484	114.718000
76.127359	4.349861	114.897000
76.158769	4.366607	114.944000
76.189488	4.381478	114.989000
76.220613	4.398436	115.035000
76.340545	4.412599	115.082000
76.371102	4.463372	115.263000
76.402857	4.495487	115.308000
76.433576	4.537064	115.354000
76.464356	4.585078	115.401000
76.494990	4.627637	115.448000
76.526123	4.665746	115.494000
76.556334	4.698291	115.540000
76.587061	4.721417	115.586000
76.617418	4.744917	115.633000
76.648951	4.771743	115.679000
76.679877	4.803900	115.725000
76.710664	4.841472	115.771000
76.741582	4.877234	115.817000
76.843834	4.993870	115.864000
76.874622	5.023467	116.018000
76.905302	5.044021	116.064000
76.936527	5.065579	116.110000
76.967192	5.090393	116.157000
77.073869	5.125101	116.202000
77.105433	5.255956	116.363000
77.135805	5.292421	116.408000
77.166723	5.329832	116.453000
77.196405	5.384891	116.499000
77.225755	5.442442	116.545000
77.256881	5.498847	116.591000
77.287469	5.557680	116.637000
77.318395	5.611813	116.683000
77.349682	5.661816	116.729000
77.380331	5.704824	116.774000
77.411503	5.742058	116.821000
77.441292	5.779629	116.868000
77.471980	5.827280	116.914000
77.574761	6.025910	116.960000
77.606525	6.074674	117.114000
77.637643	6.138309	117.161000
77.668469	6.202443	117.206000
77.698595	6.259008	117.253000
77.807939	6.308944	117.299000
77.839011	6.424724	117.463000
77.869852	6.454126	117.508000
77.899694	6.485734	117.555000
77.930351	6.513702	117.601000
77.961339	6.544903	117.648000
77.992695	6.587152	117.694000
78.023944	6.645859	117.740000
78.054593	6.705777	117.786000
78.086003	6.766637	117.832000
78.116775	6.831004	117.879000
78.146618	6.894517	117.925000
78.176460	6.958737	117.971000
78.207025	7.025397	118.017000
78.683230	7.520466	118.063000
78.713864	8.035090	118.775000
78.744529	8.096153	118.821000
78.775201	8.174008	118.867000
78.805720	8.264393	118.914000
78.836085	8.355005	118.960000
78.867072	8.437797	119.006000
78.898198	8.510969	119.052000
78.929739	8.585039	119.098000
79.033365	8.867280	119.145000
79.063369	8.934968	119.299000
79.093850	8.989305	119.345000
79.123984	9.034472	119.392000
79.155947	9.081733	119.438000
79.274949	9.137625	119.485000
79.305836	9.467101	119.663000
79.336931	9.567006	119.709000
79.367626	9.668075	119.756000
79.398522	9.756561	119.802000
79.429909	9.829848	119.847000
79.460581	9.901252	119.894000
79.491561	9.981221	119.941000
79.521457	10.064655	119.986000
79.552137	10.151251	120.033000
79.582425	10.236691	120.079000
79.614288	10.319851	120.125000
79.645122	10.397177	120.172000
79.764339	10.706238	120.218000
79.796017	10.791495	120.397000
79.826067	10.869133	120.444000
79.857962	10.938129	120.490000
79.888680	11.014998	120.536000
80.008181	11.091572	120.583000
80.039829	11.408322	120.763000
80.070217	11.492038	120.810000
80.101934	11.577617	120.856000
80.132614	11.661066	120.902000
80.162657	11.743138	120.948000
80.192545	11.823177	120.994000
80.223832	11.903600	121.040000
80.255296	11.977356	121.087000
80.286130	12.050682	121.133000
80.317570	12.125638	121.179000
80.348389	12.208683	121.226000
80.379637	12.292808	121.272000
80.498839	12.657603	121.318000
80.528881	12.763924	121.497000
80.561151	12.860664	121.544000
80.591924	12.943790	121.590000
80.622704	13.010313	121.636000
80.742366	13.080465	121.683000
80.772124	13.384254	121.863000
80.804287	13.476450	121.909000
80.834513	13.572008	121.955000
80.864871	13.675995	122.002000
80.895643	13.789752	122.048000
80.926423	13.897582	122.094000
80.958363	14.002039	122.141000
80.989373	14.101784	122.187000
81.019815	14.195343	122.233000
81.051225	14.282717	122.279000
81.082320	14.371472	122.326000
81.112117	14.470280	122.372000
81.232171	14.846006	122.417000
81.262536	14.930411	122.597000
81.293139	15.016212	122.644000
81.323903	15.104201	122.690000
81.354537	15.200353	122.736000
81.475122	15.291401	122.783000
81.506024	15.639550	122.963000
81.536605	15.746986	123.010000
81.567776	15.844602	123.056000
81.598149	15.946991	123.102000
81.629874	16.059114	123.149000
81.660846	16.175401	123.195000
81.692125	16.296872	123.241000
81.722636	16.428422	123.287000
81.754169	16.567763	123.334000
81.785003	16.710499	123.380000
81.814999	16.854991	123.427000
81.845203	16.996805	123.473000
82.107070	18.186374	123.518000
82.352273	18.322770	123.910000
82.383421	19.407053	124.277000
82.413494	19.566948	124.324000
82.443483	19.725921	124.370000
82.474916	19.884161	124.417000
82.506380	20.038289	124.463000
82.536906	20.189568	124.509000
82.567901	20.337781	124.555000
82.599319	20.492466	124.602000
82.702315	21.065858	124.648000
82.732780	21.255131	124.802000
82.762984	21.439966	124.849000
82.793595	21.613113	124.895000
82.825328	21.793486	124.941000
82.942362	21.983291	124.987000
82.974087	22.825907	125.163000
83.005036	23.049550	125.210000
83.035163	23.246929	125.256000
83.065973	23.429974	125.301000
83.096192	23.608341	125.348000
83.126327	23.775312	125.393000
83.156631	23.927568	125.439000
83.188210	24.074683	125.485000
83.219558	24.224099	125.532000
83.250599	24.383094	125.578000
83.281041	24.550249	125.624000
83.312874	24.730063	125.670000
83.342609	24.928598	125.716000
83.446151	25.647886	125.763000
83.476531	25.856645	125.918000
83.507181	26.074249	125.964000
83.539405	26.300940	126.010000
83.569778	26.536580	126.057000
83.676608	26.765755	126.103000
83.707657	27.539775	126.263000
83.737431	27.747935	126.309000
83.767765	27.957284	126.355000
83.798783	28.167586	126.401000
83.829617	28.375719	126.448000
83.860320	28.569926	126.494000
83.892414	28.755367	126.540000
83.923301	28.936636	126.587000
83.954688	29.120864	126.633000
83.984654	29.310096	126.680000
84.016655	29.496420	126.726000
84.047128	29.694937	126.773000
84.166398	30.500049	126.819000
84.197547	30.695778	126.998000
84.226621	30.877868	127.044000
84.257739	31.048675	127.090000
84.288334	31.216427	127.136000
84.319767	31.381242	127.182000
84.424193	31.543077	127.228000
84.454604	32.088107	127.384000
84.485738	32.265493	127.431000
84.516210	32.455700	127.477000
84.546752	32.654324	127.523000
84.576625	32.856622	127.570000
84.608873	33.055915	127.616000
84.639722	33.254758	127.663000
84.671355	33.451983	127.709000
84.701543	33.651869	127.756000
84.733199	33.852779	127.802000
84.763848	34.066917	127.847000
84.794521	34.288274	127.894000
84.898424	35.031328	127.940000
84.928412	35.238301	128.097000
84.959991	35.434073	128.143000
84.991186	35.635817	128.190000
85.022596	35.844150	128.236000
85.052400	36.053829	128.282000
85.156542	36.252515	128.328000
85.187468	36.918125	128.484000
85.217648	37.116600	128.530000
85.248989	37.320662	128.576000
85.278655	37.522800	128.621000
85.310757	37.717835	128.668000
85.341967	37.922027	128.715000
85.373092	38.133587	128.761000
85.403112	38.355129	128.807000
85.434068	38.589731	128.853000
85.464333	38.840883	128.900000
85.494737	39.101294	128.946000
85.525355	39.372991	128.992000
85.772832	41.604984	129.039000
86.019402	41.846380	129.410000
86.049659	43.784867	129.778000
86.080954	44.017271	129.824000
86.111012	44.262803	129.870000
86.142821	44.517353	129.916000
86.174070	44.781320	129.962000
86.205057	45.036984	130.009000
86.235568	45.286647	130.055000
86.267139	45.531788	130.102000
86.369537	46.368212	130.148000
86.400540	46.617952	130.302000
86.431558	46.866331	130.349000
86.462115	47.116635	130.395000
