Sample	2mm tape 2
date	07/01/2025
	
Temperature (K)	77.00
Angle (deg.)	0.000000
field / T	0.100000
	
		
Approx. trace time (s)	60.0	
		
Current / A	V1  -sample/ uV	time/s
0.000992	-2.058234	0.000000
0.000873	-2.041658	0.226000
0.000730	-2.042017	0.273000
0.000569	-2.047529	0.319000
0.000605	-2.048671	0.365000
0.000605	-2.054308	0.412000
0.000509	-2.060295	0.458000
0.000557	-2.072323	0.504000
0.000611	-2.079325	0.550000
0.001004	-2.111404	0.596000
0.015188	-2.114132	0.750000
0.046505	-2.117878	0.797000
0.077361	-2.127060	0.843000
0.107588	-2.131565	0.889000
0.227299	-2.137691	0.935000
0.258270	-2.134580	1.114000
0.288870	-2.137869	1.160000
0.318813	-2.141880	1.206000
0.349281	-2.159555	1.252000
0.380933	-2.170917	1.299000
0.412158	-2.187011	1.345000
0.442830	-2.198655	1.391000
0.473582	-2.205473	1.436000
0.504253	-2.218378	1.483000
0.535144	-2.229652	1.529000
0.565256	-2.252238	1.576000
0.596255	-2.270730	1.622000
0.626850	-2.284326	1.668000
0.730881	-2.314605	1.715000
0.762455	-2.312590	1.870000
0.793550	-2.302897	1.916000
0.824682	-2.301320	1.963000
0.854845	-2.295789	2.009000
0.960448	-2.295355	2.054000
0.990535	-2.321179	2.214000
1.021863	-2.319355	2.260000
1.052691	-2.324913	2.306000
1.084322	-2.327945	2.352000
1.115082	-2.325157	2.399000
1.145425	-2.325230	2.445000
1.176876	-2.328009	2.491000
1.206687	-2.326630	2.537000
1.237069	-2.336482	2.583000
1.267607	-2.348496	2.629000
1.299465	-2.363278	2.676000
1.330079	-2.381518	2.722000
1.361722	-2.398888	2.769000
1.465404	-2.470448	2.815000
1.495821	-2.493073	2.970000
1.525946	-2.518610	3.016000
1.556599	-2.545018	3.062000
1.587266	-2.566694	3.108000
1.693948	-2.596639	3.153000
1.725250	-2.665231	3.314000
1.755865	-2.681554	3.360000
1.787946	-2.694945	3.407000
1.818852	-2.703332	3.453000
1.849760	-2.712273	3.499000
1.880300	-2.714150	3.546000
1.910687	-2.702517	3.592000
1.941009	-2.687681	3.638000
1.971418	-2.685794	3.684000
2.002230	-2.679474	3.731000
2.033892	-2.674978	3.777000
2.065334	-2.675900	3.824000
2.096430	-2.669114	3.870000
2.199540	-2.678413	3.916000
2.228939	-2.671118	4.071000
2.259894	-2.669379	4.117000
2.291521	-2.671936	4.163000
2.322174	-2.677799	4.209000
2.428305	-2.678540	4.256000
2.459803	-2.624334	4.415000
2.490620	-2.583206	4.461000
2.521627	-2.543261	4.507000
2.552559	-2.515687	4.553000
2.582713	-2.498511	4.600000
2.613282	-2.501230	4.646000
2.644204	-2.498277	4.693000
2.675262	-2.485522	4.738000
2.706248	-2.467390	4.785000
2.737500	-2.442870	4.832000
2.768479	-2.427024	4.877000
2.800040	-2.413369	4.925000
3.059855	-2.282715	4.971000
3.305216	-2.285919	5.363000
3.336365	-2.341743	5.731000
3.368149	-2.357012	5.778000
3.399368	-2.375855	5.824000
3.429896	-2.393213	5.870000
3.461479	-2.404795	5.916000
3.492342	-2.406373	5.963000
3.523573	-2.391177	6.009000
3.553086	-2.369598	6.056000
3.656543	-2.371179	6.102000
3.688367	-2.378379	6.258000
3.718563	-2.383850	6.303000
3.749911	-2.388612	6.349000
3.780525	-2.386204	6.395000
3.894504	-2.385948	6.441000
3.925520	-2.374040	6.614000
3.956816	-2.359536	6.660000
3.987979	-2.358708	6.707000
4.018056	-2.369576	6.752000
4.049869	-2.365844	6.799000
4.080939	-2.355729	6.846000
4.112675	-2.325793	6.892000
4.143042	-2.300384	6.939000
4.174444	-2.280530	6.985000
4.204777	-2.254858	7.032000
4.235103	-2.238899	7.078000
4.265484	-2.235718	7.124000
4.296914	-2.308751	7.170000
4.401172	-2.206059	7.217000
4.432024	-2.194945	7.372000
4.463291	-2.178303	7.418000
4.492893	-2.183219	7.465000
4.524889	-2.196473	7.511000
4.628835	-2.200513	7.558000
4.659805	-2.195529	7.715000
4.691214	-2.207267	7.761000
4.721421	-2.226388	7.807000
4.752984	-2.243915	7.853000
4.784298	-2.262304	7.900000
4.815009	-2.276777	7.946000
4.844563	-2.296130	7.992000
4.875785	-2.313863	8.038000
4.906593	-2.331593	8.085000
4.937417	-2.359821	8.131000
4.967715	-2.384297	8.177000
4.999230	-2.399694	8.223000
5.030048	-2.410747	8.268000
5.132501	-2.401221	8.315000
5.162796	-2.395155	8.469000
5.193767	-2.384498	8.516000
5.224919	-2.368984	8.562000
5.255992	-2.332326	8.607000
5.362868	-2.292311	8.654000
5.393886	-2.212198	8.815000
5.425075	-2.198826	8.861000
5.455795	-2.161978	8.907000
5.486529	-2.127093	8.953000
5.516658	-2.089189	8.999000
5.546710	-2.065711	9.045000
5.577989	-2.041804	9.091000
5.608874	-2.025217	9.137000
5.639731	-2.006474	9.183000
5.669578	-1.989403	9.230000
5.701838	-1.960008	9.276000
5.732440	-1.931610	9.322000
5.762443	-1.899640	9.368000
5.865720	-1.801134	9.415000
5.896333	-1.773722	9.569000
5.927834	-1.757437	9.615000
5.958695	-1.739473	9.662000
5.990080	-1.718749	9.708000
6.096434	-1.702566	9.755000
6.127158	-1.605072	9.915000
6.157431	-1.578370	9.960000
6.188108	-1.563881	10.007000
6.218553	-1.568524	10.053000
6.249657	-1.576511	10.099000
6.280096	-1.559372	10.145000
6.311440	-1.536898	10.191000
6.342525	-1.501364	10.237000
6.372873	-1.456487	10.283000
6.403008	-1.432570	10.329000
6.433249	-1.421871	10.374000
6.464427	-1.420153	10.421000
6.494928	-1.419655	10.467000
6.971996	-1.613153	10.513000
7.002623	-1.810103	11.227000
7.033050	-1.819669	11.273000
7.063144	-1.831502	11.319000
7.093497	-1.843007	11.366000
7.124550	-1.851058	11.411000
7.155845	-1.851894	11.458000
7.186670	-1.853696	11.504000
7.217537	-1.853604	11.550000
7.320067	-1.865736	11.597000
7.349957	-1.860938	11.750000
7.381469	-1.859042	11.796000
7.412453	-1.862032	11.843000
7.443297	-1.869469	11.889000
7.562367	-1.870785	11.935000
7.593825	-1.853199	12.115000
7.624928	-1.823231	12.160000
7.655932	-1.790910	12.207000
7.686629	-1.768769	12.254000
7.717472	-1.744485	12.299000
7.747685	-1.721299	12.345000
7.778186	-1.699001	12.391000
7.808146	-1.691839	12.437000
7.839335	-1.690740	12.482000
7.870702	-1.694398	12.529000
7.901915	-1.694251	12.576000
7.932415	-1.690084	12.622000
7.963594	-1.687576	12.667000
8.065147	-1.696589	12.714000
8.096562	-1.696069	12.869000
8.127758	-1.685155	12.915000
8.158547	-1.675592	12.961000
8.189215	-1.674482	13.007000
8.296031	-1.677506	13.054000
8.328198	-1.731338	13.215000
8.358753	-1.743324	13.261000
8.390162	-1.750422	13.307000
8.419496	-1.753853	13.353000
8.450509	-1.759796	13.400000
8.481203	-1.761952	13.446000
8.512386	-1.762970	13.491000
8.543538	-1.766362	13.538000
8.574695	-1.764686	13.585000
8.605846	-1.761910	13.632000
8.636497	-1.760853	13.678000
8.667907	-1.756353	13.725000
8.699047	-1.758295	13.771000
8.801501	-1.736583	13.817000
8.832359	-1.736109	13.971000
8.863355	-1.738836	14.018000
8.893631	-1.739463	14.064000
8.925311	-1.737864	14.110000
9.030881	-1.742528	14.157000
9.061706	-1.790572	14.314000
9.091761	-1.807062	14.360000
9.121606	-1.820527	14.407000
9.152968	-1.833857	14.453000
9.184037	-1.837941	14.499000
9.215146	-1.837229	14.545000
9.244843	-1.842776	14.591000
9.277169	-1.845088	14.637000
9.307587	-1.846783	14.683000
9.337762	-1.848418	14.729000
9.367666	-1.842818	14.775000
9.398539	-1.837845	14.822000
9.429896	-1.833464	14.869000
9.533896	-1.844939	14.915000
9.564892	-1.844185	15.069000
9.595050	-1.852562	15.116000
9.626663	-1.851428	15.162000
9.656818	-1.839097	15.209000
9.763702	-1.835778	15.255000
9.794489	-1.853932	15.415000
9.825337	-1.850666	15.461000
9.855853	-1.847559	15.507000
9.886450	-1.837187	15.553000
9.917909	-1.817932	15.599000
9.947913	-1.802173	15.646000
9.980149	-1.773456	15.692000
10.010514	-1.739081	15.737000
10.041458	-1.710797	15.784000
10.070925	-1.687915	15.831000
10.102817	-1.654906	15.877000
10.133215	-1.627583	15.924000
10.164698	-1.602279	15.969000
10.638297	-1.525392	16.016000
10.667880	-1.519474	16.726000
10.699530	-1.499729	16.772000
10.730191	-1.498499	16.817000
10.760873	-1.496909	16.863000
10.791260	-1.502188	16.909000
10.822252	-1.505085	16.955000
10.852851	-1.514246	17.001000
10.882367	-1.525084	17.048000
10.987964	-1.556921	17.093000
11.018156	-1.574046	17.250000
11.050389	-1.585060	17.297000
11.081081	-1.588316	17.343000
11.111753	-1.590168	17.389000
11.230765	-1.582191	17.435000
11.260898	-1.589352	17.613000
11.292036	-1.588888	17.659000
11.322329	-1.587365	17.705000
11.351657	-1.589459	17.751000
11.381978	-1.587142	17.797000
11.413309	-1.604764	17.843000
11.444942	-1.629115	17.889000
11.475739	-1.641249	17.935000
11.506887	-1.646009	17.982000
11.537523	-1.649468	18.027000
11.567756	-1.657211	18.073000
11.596952	-1.666387	18.119000
11.627877	-1.666156	18.164000
11.731051	-1.651563	18.210000
11.762222	-1.645935	18.364000
11.792177	-1.633548	18.410000
11.821756	-1.613449	18.455000
11.852004	-1.591710	18.501000
11.964259	-1.568864	18.546000
11.995880	-1.468672	18.715000
12.026551	-1.470451	18.761000
12.056795	-1.482339	18.808000
12.086959	-1.492869	18.854000
12.118259	-1.501342	18.899000
12.149793	-1.505054	18.946000
12.180149	-1.510769	18.992000
12.211216	-1.512847	19.038000
12.242501	-1.525020	19.085000
12.273637	-1.541268	19.130000
12.303772	-1.555440	19.177000
12.333354	-1.561300	19.223000
12.365045	-1.548618	19.270000
12.468963	-1.511871	19.316000
12.499820	-1.496528	19.471000
12.530878	-1.496932	19.517000
12.560458	-1.507939	19.562000
12.591006	-1.515912	19.608000
12.696872	-1.519242	19.655000
12.728072	-1.592767	19.814000
12.758984	-1.623287	19.861000
12.790370	-1.651965	19.907000
12.821042	-1.680267	19.953000
12.852286	-1.704490	19.999000
12.883395	-1.718316	20.045000
12.913340	-1.717745	20.090000
12.944453	-1.720051	20.138000
12.974860	-1.725289	20.184000
13.005324	-1.728134	20.230000
13.036390	-1.730968	20.277000
13.068034	-1.733189	20.323000
13.098957	-1.726970	20.369000
13.202549	-1.689775	20.415000
13.232181	-1.656426	20.570000
13.262113	-1.621870	20.615000
13.292694	-1.599094	20.661000
13.323540	-1.589266	20.707000
13.430682	-1.592050	20.753000
13.462056	-1.556264	20.914000
13.493312	-1.557640	20.960000
13.523321	-1.565149	21.007000
13.555246	-1.586971	21.053000
13.585681	-1.606646	21.099000
13.615510	-1.614337	21.145000
13.645057	-1.623623	21.191000
13.676580	-1.633292	21.238000
13.707503	-1.635641	21.284000
13.739277	-1.630628	21.330000
13.769910	-1.623339	21.376000
13.800979	-1.601793	21.422000
13.831974	-1.583310	21.469000
14.306083	-1.587513	21.515000
14.336783	-1.579631	22.227000
14.367735	-1.585839	22.273000
14.399239	-1.590982	22.319000
14.430348	-1.594706	22.365000
14.460079	-1.607653	22.411000
14.490597	-1.618294	22.457000
14.520383	-1.630206	22.503000
14.551674	-1.636214	22.548000
14.655523	-1.659322	22.594000
14.686613	-1.655644	22.751000
14.717675	-1.636468	22.796000
14.748228	-1.608034	22.843000
14.778791	-1.580680	22.889000
14.899191	-1.557450	22.935000
14.929045	-1.547993	23.115000
14.959571	-1.558095	23.160000
14.990193	-1.549019	23.207000
15.021933	-1.527768	23.253000
15.052521	-1.519093	23.300000
15.084363	-1.515880	23.346000
15.114882	-1.521511	23.392000
15.146532	-1.532253	23.438000
15.176697	-1.543875	23.485000
15.206989	-1.554658	23.531000
15.237096	-1.567321	23.576000
15.268577	-1.582804	23.623000
15.298922	-1.603898	23.670000
15.403550	-1.666929	23.716000
15.434905	-1.675823	23.870000
15.465505	-1.682796	23.917000
15.496252	-1.686538	23.963000
15.525448	-1.692252	24.009000
15.632183	-1.700250	24.055000
15.662583	-1.713492	24.214000
15.693601	-1.735179	24.261000
15.725048	-1.753576	24.307000
15.755674	-1.769681	24.353000
15.787209	-1.786871	24.400000
15.818262	-1.804633	24.446000
15.849591	-1.817570	24.493000
15.879559	-1.828745	24.539000
15.910480	-1.843018	24.585000
15.940728	-1.856518	24.631000
15.972136	-1.873617	24.678000
16.002324	-1.892100	24.724000
16.034289	-1.907846	24.771000
16.138149	-1.951609	24.816000
16.169315	-1.956275	24.972000
16.199662	-1.959394	25.018000
16.229858	-1.958788	25.064000
16.260162	-1.957388	25.111000
16.365214	-1.948014	25.157000
16.396837	-1.923572	25.315000
16.428193	-1.903011	25.361000
16.459236	-1.865885	25.407000
16.489832	-1.818279	25.454000
16.520619	-1.787496	25.500000
16.550779	-1.768631	25.546000
16.580931	-1.751044	25.592000
16.611511	-1.742708	25.637000
16.642556	-1.732014	25.684000
16.674129	-1.719830	25.729000
16.704859	-1.704861	25.776000
16.736263	-1.679556	25.822000
16.767270	-1.639682	25.869000
16.868736	-1.553081	25.916000
16.899573	-1.540290	26.069000
16.930793	-1.530864	26.115000
16.961417	-1.528002	26.162000
16.992211	-1.527651	26.208000
17.099950	-1.521109	26.254000
17.131009	-1.488331	26.415000
17.161823	-1.478099	26.461000
17.192301	-1.473486	26.507000
17.223241	-1.477960	26.554000
17.253852	-1.488926	26.600000
17.284209	-1.496094	26.646000
17.315214	-1.506475	26.693000
17.346804	-1.513719	26.739000
17.378197	-1.524829	26.785000
17.408721	-1.537481	26.832000
17.439205	-1.544746	26.878000
17.470054	-1.553958	26.924000
17.500790	-1.562070	26.970000
17.974688	-1.640847	27.017000
18.005816	-1.489920	27.727000
18.035678	-1.458489	27.773000
18.068096	-1.437685	27.820000
18.097660	-1.427362	27.866000
18.128467	-1.424965	27.912000
18.158573	-1.421667	27.959000
18.190778	-1.421943	28.005000
18.221516	-1.425846	28.051000
18.325231	-1.365666	28.097000
18.356458	-1.358658	28.252000
18.384956	-1.362518	28.298000
18.416090	-1.361596	28.344000
18.447217	-1.357969	28.390000
18.565829	-1.365741	28.437000
18.596979	-1.459358	28.615000
18.627208	-1.478350	28.660000
18.659632	-1.488892	28.708000
18.690525	-1.496441	28.753000
18.722281	-1.492836	28.801000
18.752583	-1.491563	28.847000
18.784250	-1.489612	28.894000
18.814217	-1.493875	28.940000
18.845055	-1.497873	28.985000
18.874696	-1.509983	29.033000
18.906208	-1.524796	29.079000
18.937673	-1.533005	29.125000
19.057274	-1.558272	29.171000
19.088017	-1.548509	29.351000
19.119283	-1.531489	29.397000
19.150257	-1.517078	29.443000
19.181539	-1.505222	29.489000
19.300352	-1.493377	29.535000
19.330527	-1.432367	29.714000
19.362250	-1.437813	29.761000
19.393237	-1.450886	29.807000
19.424628	-1.463282	29.854000
19.454463	-1.474450	29.900000
19.486191	-1.490450	29.946000
19.516011	-1.501808	29.993000
19.547713	-1.516781	30.039000
19.577190	-1.533780	30.086000
19.608937	-1.546100	30.131000
19.639757	-1.555471	30.178000
19.671217	-1.561289	30.224000
19.701055	-1.571484	30.270000
19.803797	-1.596916	30.316000
19.835107	-1.596289	30.471000
19.866221	-1.604667	30.517000
19.897231	-1.610221	30.563000
19.927324	-1.608086	30.610000
20.034466	-1.591046	30.655000
20.065182	-1.550435	30.815000
20.096008	-1.538148	30.861000
20.126865	-1.524331	30.907000
20.156652	-1.505031	30.954000
20.187854	-1.490197	31.000000
20.218803	-1.478065	31.047000
20.249558	-1.467788	31.093000
20.280186	-1.462658	31.139000
20.311977	-1.454153	31.185000
20.342851	-1.443761	31.231000
20.373705	-1.434449	31.277000
20.403064	-1.425963	31.323000
20.434459	-1.405931	31.370000
20.537899	-1.321261	31.416000
20.568487	-1.320793	31.570000
20.599547	-1.308716	31.616000
20.630698	-1.280576	31.662000
20.660467	-1.257252	31.709000
20.766854	-1.235673	31.754000
20.798311	-1.148810	31.915000
20.828745	-1.151350	31.961000
20.859331	-1.168455	32.007000
20.889830	-1.182290	32.054000
20.921198	-1.191418	32.100000
20.952421	-1.192294	32.146000
20.983401	-1.183623	32.192000
21.014569	-1.175772	32.238000
21.045674	-1.160997	32.285000
21.075843	-1.141680	32.331000
21.105349	-1.125339	32.377000
21.136846	-1.111973	32.424000
21.167954	-1.094446	32.470000
21.642513	-1.100001	32.516000
21.672438	-1.198579	33.227000
21.703001	-1.214257	33.273000
21.734426	-1.223331	33.320000
21.765932	-1.238582	33.366000
21.796914	-1.261060	33.413000
21.827381	-1.289294	33.459000
21.859037	-1.322023	33.505000
21.890416	-1.352869	33.551000
21.991916	-1.474872	33.597000
22.022479	-1.510832	33.752000
22.053659	-1.551006	33.798000
22.084362	-1.583100	33.844000
22.115226	-1.613722	33.889000
22.233901	-1.636317	33.935000
22.264713	-1.711386	34.114000
22.295511	-1.730118	34.160000
22.326980	-1.736624	34.207000
22.358154	-1.742221	34.253000
22.387343	-1.744675	34.298000
22.417622	-1.746389	34.344000
22.447910	-1.746230	34.390000
22.479092	-1.746230	34.436000
22.509482	-1.742877	34.480000
22.539873	-1.736783	34.526000
22.570231	-1.736223	34.572000
22.600287	-1.732573	34.618000
22.630191	-1.724206	34.664000
22.734178	-1.692757	34.709000
22.764976	-1.683471	34.863000
22.794711	-1.672925	34.910000
22.825337	-1.656901	34.955000
22.855147	-1.644241	35.000000
22.967911	-1.637746	35.046000
22.998676	-1.569401	35.215000
23.028165	-1.536673	35.260000
23.058831	-1.505878	35.306000
23.088835	-1.486167	35.351000
23.119848	-1.484596	35.397000
23.150370	-1.491563	35.442000
23.181490	-1.500567	35.488000
23.212164	-1.512200	35.534000
23.242792	-1.520195	35.581000
23.273156	-1.519803	35.627000
23.303474	-1.511000	35.673000
23.334272	-1.496781	35.718000
23.365641	-1.479718	35.765000
23.468991	-1.418105	35.811000
23.498897	-1.407012	35.965000
23.530644	-1.396748	36.012000
23.561110	-1.388923	36.059000
23.591677	-1.382879	36.105000
23.701812	-1.384205	36.151000
23.730784	-1.396366	36.315000
23.762509	-1.408253	36.361000
23.793026	-1.420353	36.407000
23.824434	-1.431275	36.454000
23.854613	-1.454439	36.499000
23.886806	-1.475500	36.545000
23.916872	-1.483633	36.591000
23.947723	-1.489889	36.637000
23.977498	-1.505053	36.684000
24.008672	-1.516007	36.730000
24.039331	-1.530852	36.777000
24.070741	-1.545677	36.823000
24.101321	-1.564050	36.869000
24.204266	-1.647391	36.915000
24.235531	-1.666396	37.069000
24.265660	-1.687004	37.115000
24.296496	-1.707621	37.161000
24.326425	-1.717173	37.208000
24.433482	-1.732702	37.254000
24.465263	-1.767634	37.415000
24.496022	-1.774844	37.461000
24.527324	-1.784102	37.508000
24.557472	-1.793921	37.552000
24.589416	-1.803497	37.600000
24.620317	-1.811024	37.646000
24.650742	-1.821703	37.692000
24.680100	-1.828076	37.739000
24.711374	-1.830463	37.785000
24.742555	-1.832402	37.831000
24.773961	-1.835044	37.877000
24.804319	-1.836592	37.924000
24.835994	-1.835341	37.970000
25.308778	-1.855680	38.016000
25.339823	-1.767389	38.727000
25.371021	-1.747531	38.774000
25.402109	-1.729792	38.820000
25.433713	-1.717817	38.867000
25.464742	-1.705991	38.913000
25.495912	-1.698313	38.959000
25.526955	-1.691923	39.006000
25.557355	-1.691392	39.052000
25.660121	-1.685884	39.098000
25.691243	-1.682181	39.254000
25.722413	-1.676563	39.300000
25.753302	-1.678212	39.346000
25.784526	-1.675474	39.392000
25.901883	-1.674881	39.439000
25.933103	-1.655845	39.615000
25.963765	-1.648673	39.661000
25.994092	-1.643479	39.708000
26.024776	-1.639776	39.754000
26.055704	-1.636055	39.801000
26.086447	-1.634477	39.846000
26.117435	-1.639989	39.893000
26.148662	-1.641968	39.939000
26.179715	-1.647076	39.984000
26.210758	-1.656564	40.032000
26.241617	-1.662157	40.078000
26.271682	-1.667847	40.124000
26.301601	-1.676892	40.169000
26.406131	-1.718293	40.216000
26.436872	-1.730902	40.371000
26.467723	-1.740550	40.417000
26.499001	-1.746803	40.463000
26.530040	-1.734510	40.510000
26.635601	-1.713944	40.556000
26.665350	-1.639268	40.715000
26.695526	-1.631018	40.760000
26.726884	-1.634455	40.807000
26.758365	-1.639534	40.853000
26.789324	-1.655875	40.900000
26.820292	-1.667073	40.946000
26.851479	-1.672755	40.992000
26.882599	-1.672840	41.039000
26.912707	-1.664441	41.085000
26.942571	-1.649434	41.131000
26.973126	-1.635026	41.177000
27.004797	-1.617319	41.223000
27.035967	-1.588779	41.270000
27.139909	-1.537851	41.316000
27.170848	-1.548268	41.471000
27.201589	-1.564939	41.518000
27.232677	-1.581271	41.564000
27.262625	-1.598702	41.610000
27.368345	-1.609949	41.657000
27.399483	-1.617795	41.815000
27.430414	-1.617532	41.861000
27.461565	-1.620863	41.907000
27.492483	-1.620948	41.954000
27.522860	-1.627496	42.000000
27.554487	-1.635524	42.046000
27.586312	-1.647998	42.093000
27.616246	-1.657306	42.140000
27.645920	-1.669149	42.185000
27.677199	-1.677059	42.232000
27.708699	-1.681990	42.279000
27.739577	-1.670979	42.325000
27.770300	-1.661058	42.371000
27.874604	-1.604698	42.418000
27.903602	-1.583990	42.572000
27.934514	-1.564758	42.618000
27.965200	-1.551007	42.664000
27.996652	-1.542358	42.711000
28.102212	-1.537861	42.757000
28.132667	-1.541849	42.915000
28.164424	-1.543228	42.961000
28.195120	-1.541710	43.007000
28.226480	-1.539718	43.054000
28.255808	-1.535571	43.100000
28.286960	-1.527745	43.147000
28.317798	-1.517862	43.193000
28.349336	-1.504702	43.239000
28.379734	-1.508116	43.286000
28.411365	-1.500632	43.332000
28.442360	-1.496040	43.379000
28.473015	-1.492879	43.425000
28.733484	-1.353609	43.472000
28.979751	-1.333323	43.864000
29.010505	-1.230162	44.232000
29.041549	-1.222092	44.278000
29.071954	-1.213937	44.324000
29.103462	-1.216593	44.370000
29.134186	-1.225848	44.416000
29.165569	-1.234116	44.462000
29.194459	-1.235703	44.509000
29.225952	-1.233303	44.555000
29.329081	-1.190466	44.601000
29.360710	-1.171869	44.756000
29.391841	-1.148429	44.803000
29.422210	-1.116758	44.849000
29.453910	-1.079471	44.894000
29.568726	-1.045188	44.941000
29.599221	-0.898268	45.115000
29.630566	-0.855763	45.162000
29.660854	-0.816000	45.208000
29.692670	-0.792903	45.254000
29.723342	-0.776189	45.300000
29.754541	-0.754811	45.346000
29.785190	-0.733844	45.393000
29.816771	-0.711494	45.439000
29.847180	-0.702799	45.485000
29.878104	-0.699551	45.532000
29.907197	-0.695194	45.578000
29.939435	-0.693553	45.625000
29.970025	-0.691343	45.671000
30.071499	-0.652755	45.717000
30.102934	-0.635153	45.872000
30.132595	-0.627243	45.919000
30.163519	-0.623265	45.965000
30.193099	-0.630413	46.010000
30.299196	-0.625874	46.055000
30.330249	-0.587000	46.215000
30.361247	-0.591283	46.261000
30.392275	-0.611218	46.307000
30.423506	-0.628080	46.353000
30.454250	-0.646096	46.400000
30.484292	-0.669311	46.445000
30.515020	-0.694148	46.492000
30.545512	-0.723670	46.538000
30.576647	-0.749734	46.585000
30.607158	-0.780728	46.631000
30.638876	-0.817132	46.677000
30.669732	-0.854696	46.724000
30.700451	-0.887275	46.770000
30.804402	-0.971729	46.816000
30.834502	-0.975885	46.971000
30.864846	-0.981644	47.018000
30.895618	-0.984315	47.064000
30.927451	-0.994390	47.110000
31.033258	-0.995896	47.157000
31.064257	-1.036058	47.315000
31.094952	-1.042102	47.361000
31.126318	-1.046056	47.408000
31.157436	-1.050490	47.454000
31.186910	-1.056599	47.500000
31.217248	-1.063639	47.546000
31.248416	-1.075357	47.593000
31.279545	-1.087847	47.638000
31.310538	-1.103308	47.685000
31.341801	-1.107804	47.731000
31.372788	-1.104052	47.777000
31.404319	-1.090924	47.824000
31.434048	-1.066650	47.869000
31.536593	-0.969790	47.916000
31.567608	-0.937616	48.071000
31.599331	-0.905518	48.117000
31.630539	-0.878339	48.164000
31.661209	-0.854135	48.210000
31.767378	-0.841209	48.256000
31.798319	-0.759127	48.415000
31.829049	-0.726210	48.462000
31.859433	-0.697026	48.508000
31.890246	-0.671865	48.554000
31.920186	-0.650560	48.601000
31.951454	-0.639269	48.647000
31.983073	-0.636425	48.693000
32.013869	-0.638388	48.739000
32.044937	-0.641686	48.785000
32.075778	-0.638356	48.831000
32.106277	-0.648568	48.878000
32.136205	-0.651780	48.923000
32.166281	-0.659670	48.969000
32.641346	-0.806490	49.015000
32.673493	-0.908603	49.727000
32.703970	-0.905624	49.774000
32.735145	-0.912697	49.821000
32.764104	-0.928888	49.867000
32.795979	-0.952769	49.913000
32.826836	-0.968326	49.959000
32.857762	-0.984189	50.004000
32.888546	-0.992672	50.051000
32.991450	-1.013333	50.098000
33.022979	-1.001696	50.253000
33.053148	-0.993700	50.299000
33.084293	-0.994231	50.345000
33.114278	-0.991781	50.391000
33.232841	-0.962714	50.438000
33.264194	-0.938157	50.615000
33.295208	-0.932929	50.661000
33.326403	-0.935675	50.707000
33.356453	-0.935834	50.753000
33.388035	-0.941846	50.800000
33.417621	-0.954339	50.845000
33.448439	-0.965610	50.892000
33.478689	-0.974612	50.937000
33.510122	-0.980329	50.984000
33.540898	-0.983127	51.030000
33.572454	-0.976428	51.076000
33.603149	-0.954339	51.123000
33.634598	-0.935802	51.169000
33.736780	-0.903873	51.215000
33.767798	-0.890144	51.370000
33.799058	-0.884061	51.417000
33.829415	-0.877301	51.463000
33.861233	-0.872394	51.509000
33.967937	-0.865822	51.555000
33.998644	-0.816011	51.715000
34.030299	-0.788936	51.762000
34.060311	-0.765685	51.808000
34.092124	-0.742275	51.854000
34.121948	-0.727551	51.901000
34.152574	-0.723574	51.947000
34.182797	-0.725057	51.993000
34.214307	-0.725838	52.039000
34.245286	-0.732925	52.085000
34.276570	-0.732861	52.132000
34.306942	-0.736362	52.178000
34.338763	-0.733453	52.225000
34.369105	-0.734046	52.270000
34.471222	-0.722728	52.317000
34.502624	-0.720929	52.471000
34.533009	-0.716985	52.517000
34.564511	-0.702334	52.564000
34.595352	-0.683845	52.609000
34.701607	-0.667155	52.656000
34.732594	-0.636425	52.815000
34.761695	-0.645681	52.861000
34.793197	-0.641962	52.907000
34.823628	-0.640995	52.953000
34.854926	-0.636585	53.000000
34.885007	-0.632915	53.045000
34.916801	-0.636329	53.092000
34.947646	-0.648493	53.138000
34.978918	-0.670633	53.184000
35.008084	-0.684436	53.231000
35.039882	-0.694561	53.277000
35.070586	-0.695901	53.324000
35.101581	-0.700219	53.370000
35.205772	-0.704884	53.416000
35.236736	-0.707286	53.572000
35.267509	-0.705200	53.618000
35.298846	-0.705708	53.664000
35.330102	-0.714150	53.711000
35.434290	-0.720307	53.757000
35.464474	-0.763770	53.915000
35.495404	-0.760280	53.961000
35.526626	-0.757244	54.008000
35.558669	-0.750252	54.054000
35.589276	-0.738647	54.101000
35.620417	-0.722993	54.147000
35.651063	-0.703668	54.193000
35.681528	-0.675426	54.239000
35.711424	-0.650211	54.285000
35.742696	-0.623902	54.332000
35.772996	-0.597040	54.378000
35.804502	-0.578516	54.425000
35.834882	-0.569497	54.471000
36.308548	-0.586681	54.517000
36.339355	-0.705782	55.227000
36.370669	-0.706258	55.274000
36.401744	-0.716264	55.319000
36.432140	-0.722719	55.366000
36.463281	-0.727490	55.412000
36.495190	-0.741916	55.458000
36.525890	-0.765359	55.505000
36.556401	-0.793314	55.551000
36.659228	-0.897835	55.598000
36.689951	-0.924815	55.752000
36.721169	-0.945059	55.799000
36.752386	-0.958165	55.845000
36.782648	-0.965865	55.891000
36.900969	-0.968071	55.937000
36.932606	-0.985928	56.115000
36.963989	-0.998283	56.162000
36.994588	-1.008009	56.208000
37.024650	-1.015157	56.254000
37.055679	-1.013726	56.301000
37.086625	-0.997582	56.347000
37.117039	-0.970616	56.393000
37.147643	-0.955282	56.440000
37.178937	-0.961391	56.485000
37.209906	-0.964200	56.531000
37.240305	-0.962937	56.577000
37.269218	-0.964731	56.622000
37.300071	-0.977700	56.668000
37.404228	-1.035677	56.713000
37.435323	-1.054795	56.869000
37.465780	-1.068242	56.914000
37.496595	-1.080310	56.960000
37.527559	-1.089811	57.007000
37.635312	-1.097561	57.054000
37.666399	-1.135260	57.215000
37.696791	-1.152724	57.262000
37.727432	-1.152861	57.308000
37.758243	-1.143076	57.355000
37.789668	-1.134065	57.401000
37.820249	-1.129156	57.448000
37.851463	-1.134001	57.494000
37.882511	-1.141152	57.540000
37.913952	-1.146684	57.586000
37.944467	-1.144642	57.632000
37.973852	-1.131219	57.678000
38.004529	-1.110710	57.724000
38.035220	-1.087011	57.769000
38.139642	-1.033673	57.816000
38.170272	-1.016652	57.971000
38.201517	-1.006292	58.017000
38.231909	-0.983903	58.064000
38.262216	-0.958389	58.109000
38.368229	-0.928654	58.156000
38.399009	-0.900332	58.315000
38.430365	-0.893933	58.362000
38.460246	-0.881447	58.408000
38.492198	-0.857880	58.454000
38.522962	-0.833488	58.501000
38.554080	-0.806395	58.546000
38.585102	-0.782949	58.593000
38.616570	-0.763898	58.640000
38.646197	-0.736173	58.686000
38.677081	-0.699540	58.732000
38.707853	-0.665694	58.779000
38.739071	-0.645482	58.825000
38.770216	-0.630222	58.871000
38.873942	-0.618577	58.918000
38.905210	-0.613256	59.073000
38.934580	-0.602853	59.119000
38.965833	-0.585769	59.165000
38.995959	-0.564451	59.211000
39.101530	-0.551482	59.258000
39.132844	-0.530624	59.415000
39.163221	-0.504050	59.461000
39.195184	-0.478706	59.508000
39.225537	-0.454109	59.554000
39.257305	-0.438750	59.600000
39.286244	-0.425314	59.646000
39.318027	-0.414144	59.693000
39.347812	-0.394174	59.739000
39.378922	-0.380284	59.784000
39.409610	-0.355462	59.831000
39.441300	-0.333797	59.877000
39.472111	-0.309414	59.924000
39.503429	-0.281193	59.970000
39.976242	-0.497454	60.017000
40.007037	-0.667983	60.728000
40.038654	-0.678002	60.774000
40.070268	-0.700504	60.820000
40.100775	-0.726926	60.867000
40.131893	-0.741430	60.913000
40.161851	-0.723003	60.958000
40.192631	-0.702937	61.005000
40.222477	-0.695066	61.051000
40.326577	-0.746392	61.097000
40.356519	-0.745290	61.251000
40.388797	-0.732300	61.298000
40.419539	-0.735591	61.344000
40.449931	-0.730927	61.391000
40.569243	-0.722655	61.437000
40.599689	-0.741069	61.615000
40.629670	-0.773078	61.661000
40.660622	-0.787063	61.707000
40.691272	-0.798303	61.753000
40.722386	-0.790522	61.800000
40.753615	-0.779891	61.846000
40.784991	-0.764944	61.892000
40.815909	-0.761042	61.939000
40.846916	-0.770097	61.985000
40.876862	-0.796842	62.030000
40.907219	-0.823448	62.077000
40.937918	-0.844223	62.124000
40.969275	-0.846866	62.170000
41.073405	-0.866566	62.217000
41.104077	-0.874033	62.371000
41.135376	-0.885564	62.417000
41.165691	-0.889984	62.464000
41.196109	-0.893583	62.510000
41.301649	-0.912388	62.557000
41.332568	-1.004805	62.714000
41.363536	-1.029704	62.761000
41.394884	-1.035611	62.807000
41.425434	-1.025676	62.854000
41.457320	-1.007585	62.900000
41.488561	-0.984115	62.946000
41.518523	-0.971728	62.992000
41.547816	-0.963670	63.038000
41.578953	-0.974538	63.084000
41.610328	-0.984062	63.131000
41.641143	-0.993531	63.177000
41.672061	-0.996181	63.224000
41.703410	-0.996127	63.270000
41.805988	-0.988345	63.316000
41.837106	-0.995163	63.470000
41.867286	-1.010046	63.516000
41.898039	-1.030268	63.563000
41.929365	-1.042208	63.609000
42.035727	-1.050447	63.656000
42.066852	-1.072928	63.815000
42.098120	-1.080106	63.861000
42.129192	-1.077126	63.908000
42.160487	-1.069461	63.955000
42.191228	-1.067255	64.001000
42.221455	-1.062313	64.047000
42.250971	-1.055390	64.093000
42.282608	-1.047360	64.140000
42.313964	-1.041063	64.186000
42.344813	-1.020968	64.232000
42.375666	-0.989320	64.279000
42.407418	-0.950996	64.325000
42.527330	-0.848772	64.372000
42.557752	-0.837431	64.551000
42.589212	-0.837148	64.598000
42.619243	-0.847430	64.644000
42.651014	-0.858124	64.690000
42.770131	-0.864216	64.736000
42.801203	-0.933533	64.915000
42.832178	-0.952301	64.962000
42.861426	-0.968560	65.007000
42.891917	-0.989980	65.053000
42.922786	-1.013301	65.099000
42.954392	-1.031773	65.146000
42.984572	-1.046460	65.192000
43.015802	-1.061964	65.239000
43.047092	-1.076619	65.285000
43.077811	-1.078008	65.330000
43.108368	-1.059120	65.377000
43.138994	-1.060350	65.423000
43.169486	-1.064466	65.469000
43.644416	-0.798885	65.516000
43.675134	-0.725859	66.227000
43.706318	-0.730406	66.273000
43.736352	-0.733360	66.320000
43.767332	-0.731243	66.366000
43.797194	-0.727784	66.412000
43.829088	-0.707886	66.459000
43.859967	-0.692126	66.505000
43.891819	-0.665779	66.551000
43.994267	-0.595558	66.598000
44.024839	-0.583860	66.752000
44.055803	-0.558259	66.799000
44.085880	-0.538037	66.845000
44.117313	-0.514346	66.891000
44.235992	-0.489140	66.937000
44.266630	-0.374509	67.115000
44.297867	-0.349644	67.161000
44.328896	-0.316955	67.208000
44.359819	-0.275405	67.254000
44.390084	-0.240346	67.301000
44.422162	-0.199191	67.347000
44.452293	-0.161898	67.392000
44.483004	-0.135243	67.439000
44.512385	-0.114884	67.485000
44.544114	-0.096486	67.531000
44.575370	-0.084790	67.578000
44.606250	-0.068014	67.624000
44.636043	-0.066104	67.670000
44.739512	-0.113632	67.715000
44.770634	-0.107820	67.871000
44.801014	-0.087375	67.917000
44.832301	-0.061958	67.963000
44.861967	-0.034333	68.009000
44.969628	-0.007421	68.055000
45.000504	0.091800	68.215000
45.031625	0.116127	68.261000
45.063927	0.134756	68.308000
45.093658	0.150275	68.353000
45.124307	0.171355	68.399000
45.154296	0.197102	68.445000
45.185202	0.211790	68.492000
45.216535	0.219477	68.538000
45.247388	0.227101	68.584000
45.278211	0.240749	68.630000
45.309432	0.255818	68.676000
45.339801	0.270812	68.722000
45.370489	0.272021	68.769000
45.472579	0.310518	68.814000
45.503904	0.327376	68.969000
45.535003	0.352477	69.015000
45.565583	0.372731	69.061000
45.596805	0.396827	69.107000
45.704231	0.427377	69.154000
45.735096	0.597870	69.315000
45.765868	0.644602	69.361000
45.795641	0.688357	69.407000
45.825530	0.729918	69.453000
45.856898	0.766661	69.499000
45.888446	0.799693	69.545000
45.919291	0.835193	69.591000
45.950259	0.868535	69.637000
45.981377	0.901251	69.684000
46.012745	0.937827	69.731000
46.042937	0.983979	69.777000
46.073433	1.019438	69.823000
46.103652	1.039884	69.869000
46.207928	0.995036	69.916000
46.239123	0.967173	70.071000
46.270099	0.944068	70.117000
46.301097	0.934846	70.164000
46.331874	0.919987	70.210000
46.438416	0.912478	70.256000
46.468497	0.908732	70.415000
46.498697	0.918633	70.461000
46.529169	0.914667	70.508000
46.560683	0.899456	70.554000
46.592377	0.887546	70.601000
46.622881	0.887662	70.647000
46.653684	0.895140	70.693000
46.685362	0.905433	70.739000
46.716269	0.911578	70.786000
46.746150	0.929737	70.832000
46.776511	0.953610	70.878000
46.807437	0.978904	70.924000
46.838425	1.010374	70.971000
47.313281	1.204906	71.016000
47.343278	1.453919	71.728000
47.372901	1.457357	71.773000
47.404761	1.471034	71.820000
47.435525	1.490678	71.866000
47.466901	1.505882	71.913000
47.497757	1.518216	71.959000
47.529747	1.527951	72.006000
47.559836	1.543784	72.051000
47.662010	1.606533	72.097000
47.692721	1.623987	72.253000
47.723520	1.638112	72.299000
47.755660	1.659809	72.345000
47.786344	1.685937	72.392000
47.904155	1.715518	72.438000
47.935465	1.785069	72.615000
47.965691	1.803386	72.661000
47.997970	1.821337	72.708000
48.028803	1.837924	72.754000
48.059564	1.859650	72.800000
48.088492	1.875200	72.846000
48.120352	1.884348	72.893000
48.150959	1.892759	72.940000
48.182787	1.892663	72.986000
48.213329	1.894865	73.033000
48.244927	1.898440	73.079000
48.275769	1.907511	73.125000
48.395070	1.936333	73.171000
48.425792	1.931242	73.352000
48.457079	1.919918	73.398000
48.488408	1.901761	73.444000
48.519350	1.881440	73.490000
48.638462	1.860295	73.536000
48.669077	1.785111	73.715000
48.701463	1.772555	73.762000
48.731632	1.762992	73.809000
48.761778	1.767266	73.855000
48.791574	1.794203	73.901000
48.823572	1.808916	73.948000
48.854252	1.793929	73.994000
48.885874	1.767000	74.040000
48.916008	1.743983	74.086000
48.947906	1.723758	74.133000
48.978767	1.701004	74.179000
49.009635	1.676520	74.225000
49.039604	1.660603	74.272000
49.142343	1.624465	74.318000
49.174287	1.601239	74.472000
49.205075	1.589502	74.519000
49.236708	1.578861	74.565000
49.266961	1.580336	74.612000
49.371353	1.591305	74.658000
49.403204	1.581566	74.816000
49.433112	1.573210	74.862000
49.464280	1.562404	74.908000
49.494392	1.559806	74.955000
49.526167	1.555066	75.001000
49.556716	1.558299	75.046000
49.588299	1.566063	75.093000
49.618441	1.575149	75.140000
49.650416	1.584207	75.186000
49.680377	1.589682	75.232000
49.710758	1.592408	75.278000
49.740620	1.599098	75.324000
49.772233	1.596829	75.370000
49.876863	1.598684	75.417000
49.907873	1.603032	75.571000
49.938484	1.609468	75.618000
49.967827	1.617391	75.664000
49.999233	1.630782	75.710000
50.104366	1.647154	75.756000
50.136252	1.715273	75.916000
50.167601	1.723386	75.962000
50.198776	1.736492	76.009000
50.229660	1.751325	76.055000
50.260140	1.766957	76.101000
50.291669	1.780222	76.147000
50.322015	1.788516	76.193000
50.352822	1.793388	76.240000
50.382914	1.793293	76.287000
50.413875	1.798774	76.333000
50.444367	1.804464	76.379000
50.476437	1.811244	76.425000
50.738005	2.090924	76.472000
50.983446	2.133220	76.864000
51.013515	2.218459	77.232000
51.043788	2.226940	77.278000
51.075082	2.245336	77.325000
51.106123	2.270605	77.370000
51.137249	2.298563	77.417000
51.167879	2.329759	77.463000
51.199412	2.364184	77.509000
51.230088	2.403368	77.556000
51.332313	2.512923	77.602000
51.363085	2.543005	77.756000
51.393527	2.569087	77.802000
51.424676	2.591734	77.848000
51.455490	2.612162	77.894000
51.572943	2.628578	77.940000
51.603547	2.664023	78.115000
51.634161	2.679339	78.162000
51.664741	2.696149	78.208000
51.694899	2.715293	78.254000
51.725875	2.732961	78.301000
51.756732	2.745716	78.347000
51.787903	2.757532	78.394000
51.819667	2.762778	78.440000
51.850285	2.772853	78.486000
51.880785	2.773849	78.532000
51.912310	2.767379	78.578000
51.942679	2.761139	78.625000
51.972429	2.759922	78.671000
52.076240	2.788538	78.717000
52.106928	2.803212	78.872000
52.138238	2.819512	78.918000
52.169610	2.836393	78.964000
52.200201	2.860560	79.011000
52.305845	2.888529	79.057000
52.335327	2.969978	79.215000
52.366468	3.005401	79.261000
52.397570	3.045164	79.308000
52.429122	3.089101	79.354000
52.460306	3.138987	79.401000
52.490759	3.192701	79.446000
52.522215	3.255232	79.493000
52.552872	3.302377	79.539000
52.583345	3.342009	79.586000
52.613933	3.380925	79.632000
52.644178	3.418735	79.678000
52.675254	3.456215	79.725000
52.706653	3.491653	79.771000
52.810571	3.601627	79.818000
52.840667	3.634780	79.972000
52.871916	3.668407	80.018000
52.902047	3.709382	80.064000
52.933134	3.759226	80.111000
53.039012	3.819668	80.157000
53.069085	4.057318	80.315000
53.100491	4.134689	80.361000
53.131094	4.218613	80.408000
53.162846	4.303555	80.454000
53.193484	4.388463	80.500000
53.224433	4.462541	80.546000
53.253753	4.523344	80.592000
53.284833	4.577863	80.638000
53.315762	4.629136	80.685000
53.347049	4.679337	80.731000
53.378025	4.741245	80.778000
53.409186	4.813161	80.824000
53.440234	4.890029	80.870000
53.541537	5.155281	80.917000
53.573404	5.237110	81.071000
53.603485	5.315847	81.117000
53.635448	5.381615	81.163000
53.665287	5.426959	81.209000
53.772286	5.461908	81.256000
53.803954	5.586607	81.416000
53.834918	5.639210	81.462000
53.865890	5.699418	81.508000
53.895771	5.757829	81.554000
53.927246	5.815628	81.601000
53.956709	5.886899	81.647000
53.988733	5.968023	81.693000
54.018680	6.042539	81.740000
54.050520	6.117168	81.786000
54.081277	6.187120	81.833000
54.112867	6.256406	81.879000
54.143908	6.329143	81.925000
54.174369	6.403595	81.971000
54.647666	6.862369	82.017000
54.678496	7.072529	82.727000
54.709126	7.112775	82.773000
54.739180	7.150122	82.819000
54.769096	7.195057	82.865000
54.799607	7.251269	82.910000
54.830068	7.304023	82.956000
54.861124	7.359926	83.002000
54.892073	7.421720	83.048000
54.997033	7.640172	83.094000
55.028478	7.704422	83.252000
55.058870	7.770828	83.298000
55.089154	7.838949	83.345000
55.120003	7.906574	83.391000
55.239346	7.973823	83.438000
55.269830	8.255843	83.615000
55.300657	8.333059	83.661000
55.331221	8.415416	83.707000
55.362086	8.489311	83.754000
55.393761	8.567040	83.800000
55.424890	8.645239	83.846000
55.455816	8.720426	83.893000
55.486381	8.793160	83.939000
55.517280	8.865909	83.985000
55.547226	8.941138	84.032000
55.577899	9.010765	84.078000
55.609251	9.080039	84.124000
55.640488	9.150558	84.170000
55.744211	9.414471	84.217000
55.775267	9.510089	84.372000
55.805237	9.597864	84.418000
55.835997	9.682927	84.464000
55.866386	9.764027	84.510000
55.972571	9.854146	84.557000
56.003869	10.155348	84.716000
56.034334	10.260355	84.762000
56.065879	10.353663	84.809000
56.097427	10.450219	84.855000
56.128169	10.551971	84.902000
56.158357	10.645598	84.948000
56.189317	10.761998	84.993000
56.219590	10.864189	85.040000
56.249705	10.970142	85.086000
56.280793	11.063263	85.132000
56.312379	11.154062	85.178000
56.343613	11.248385	85.225000
56.374650	11.350764	85.271000
56.477336	11.677217	85.317000
56.507182	11.779015	85.472000
56.537931	11.868809	85.518000
56.569541	11.954866	85.564000
56.600140	12.047725	85.609000
56.706802	12.147891	85.656000
56.737244	12.557222	85.815000
56.768711	12.674848	85.861000
56.799138	12.797864	85.907000
56.828070	12.909916	85.953000
56.858393	13.017404	85.998000
56.889726	13.117241	86.045000
56.920924	13.205469	86.091000
56.952077	13.294983	86.137000
56.982411	13.381843	86.183000
57.013844	13.458522	86.229000
57.045039	13.541473	86.275000
57.075020	13.624900	86.322000
57.104770	13.708212	86.368000
57.209062	13.999191	86.415000
57.239723	14.092722	86.569000
57.271225	14.192742	86.615000
57.301571	14.298416	86.661000
57.331728	14.410510	86.707000
57.441064	14.521230	86.753000
57.471152	14.917533	86.915000
57.501863	15.039088	86.961000
57.531805	15.149443	87.007000
57.562528	15.264473	87.054000
57.593327	15.376528	87.100000
57.624587	15.485809	87.146000
57.655586	15.606376	87.191000
57.686527	15.730775	87.239000
57.717818	15.855888	87.285000
57.748463	15.989960	87.331000
57.778852	16.118258	87.377000
57.808602	16.248832	87.424000
57.839850	16.395003	87.469000
58.316021	17.576718	87.515000
58.346555	18.781790	88.228000
58.377062	18.933181	88.274000
58.406332	19.085670	88.321000
58.437950	19.235506	88.366000
58.469010	19.394580	88.413000
58.500370	19.553206	88.458000
58.530739	19.729604	88.506000
58.562007	19.912868	88.552000
58.666145	20.572433	88.598000
58.696060	20.776352	88.754000
58.727098	20.989713	88.800000
58.757263	21.207998	88.847000
58.789387	21.429757	88.893000
58.906806	21.648489	88.940000
58.937617	22.466745	89.116000
58.968900	22.681773	89.161000
58.998942	22.887591	89.208000
59.031666	23.084715	89.255000
59.062242	23.272567	89.301000
59.093510	23.453966	89.348000
59.121835	23.623067	89.394000
59.153418	23.793628	89.440000
59.183825	23.966376	89.486000
59.215185	24.130671	89.532000
59.245666	24.290986	89.578000
59.277852	24.451040	89.624000
59.308263	24.605555	89.671000
59.410837	25.123219	89.717000
59.441263	25.289229	89.871000
59.471567	25.455806	89.917000
59.502654	25.622107	89.963000
59.533887	25.778375	90.009000
59.640618	25.951051	90.056000
59.671752	26.558285	90.215000
59.701871	26.734383	90.262000
59.733311	26.892456	90.308000
59.762939	27.043729	90.353000
59.793561	27.189594	90.400000
59.824664	27.340763	90.446000
59.856005	27.489695	90.493000
59.886781	27.630559	90.539000
59.917991	27.771824	90.585000
59.948560	27.913291	90.631000
59.980154	28.061444	90.678000
60.011084	28.197157	90.724000
60.041702	28.342138	90.771000
60.141019	28.887462	90.816000
60.172367	29.066829	90.972000
60.203723	29.250432	91.019000
60.234557	29.444730	91.065000
60.265710	29.648156	91.111000
60.371741	29.847257	91.157000
60.402037	30.553933	91.316000
60.431753	30.761662	91.361000
60.462026	30.967710	91.407000
60.492783	31.165656	91.453000
60.523970	31.375638	91.499000
60.555441	31.586490	91.546000
60.586025	31.803882	91.592000
60.617289	32.035423	91.638000
60.647996	32.267077	91.685000
60.678284	32.492564	91.730000
60.708430	32.716528	91.777000
60.739767	32.944407	91.823000
60.770747	33.180065	91.870000
60.874570	33.980528	91.916000
60.904843	34.246230	92.070000
60.936437	34.507830	92.117000
60.967063	34.750324	92.163000
60.996698	34.981389	92.209000
61.104424	35.219892	92.256000
61.134117	36.028518	92.416000
61.165711	36.272316	92.462000
61.197306	36.512694	92.509000
61.228112	36.758230	92.555000
61.258977	36.996261	92.602000
61.289741	37.215015	92.648000
61.321436	37.409036	92.694000
61.352020	37.588717	92.740000
61.382596	37.770259	92.787000
61.412508	37.961297	92.833000
61.443787	38.159279	92.879000
61.474552	38.367804	92.926000
61.505374	38.585933	92.972000
61.978940	40.748303	93.018000
62.009969	42.581281	93.728000
62.040934	42.778937	93.775000
62.072405	42.974855	93.822000
62.102655	43.163224	93.867000
62.133946	43.347237	93.914000
62.164968	43.528893	93.960000
62.195763	43.705584	94.006000
62.226896	43.889626	94.053000
62.328491	44.586572	94.099000
62.360012	44.795012	94.253000
62.391038	45.005708	94.299000
62.422325	45.225643	94.346000
62.453013	45.449082	94.392000
62.570689	45.679305	94.438000
62.602833	46.589623	94.616000
62.633670	46.821604	94.662000
62.664584	47.046252	94.709000
62.693939	47.261180	94.755000
62.725149	47.478927	94.801000
62.755756	47.695504	94.848000
62.787631	47.907380	94.893000
62.818434	48.107302	94.940000
