Sample	2mm tape 2
date	07/01/2025
	
Temperature (K)	77.00
Angle (deg.)	0.000000
field / T	0.020000
	
		
Approx. trace time (s)	60.0	
		
Current / A	V1  -sample/ uV	time/s
0.000992	-2.645555	0.000000
0.000926	-2.624802	0.046000
0.001172	-2.570651	0.092000
0.001016	-2.548244	0.256000
0.000742	-2.522869	0.301000
0.000485	-2.520872	0.346000
0.000724	-2.512685	0.392000
0.000760	-2.481691	0.439000
0.000802	-2.449548	0.486000
0.000760	-2.372707	0.642000
0.000551	-2.325424	0.688000
0.001960	-2.316433	0.734000
0.030870	-2.315320	0.780000
0.062055	-2.296165	0.826000
0.092594	-2.262155	0.872000
0.124423	-2.246940	0.919000
0.155294	-2.236495	0.965000
0.186277	-2.206888	1.011000
0.217340	-2.172263	1.057000
0.248777	-2.157624	1.104000
0.279287	-2.157528	1.150000
0.527812	-2.083951	1.196000
0.773431	-2.100690	1.568000
0.803704	-2.023793	1.936000
0.834196	-1.996555	1.982000
0.864532	-1.958472	2.028000
0.895047	-1.936871	2.075000
0.925906	-1.921243	2.121000
0.957051	-1.883206	2.167000
0.987910	-1.839766	2.213000
1.018841	-1.815633	2.259000
1.122969	-1.810640	2.305000
1.152525	-1.809600	2.460000
1.183060	-1.825430	2.506000
1.214218	-1.826735	2.553000
1.245732	-1.817371	2.599000
1.362412	-1.821487	2.646000
1.392948	-1.843979	2.820000
1.424058	-1.869739	2.867000
1.455304	-1.893864	2.913000
1.486235	-1.898487	2.960000
1.517312	-1.893013	3.006000
1.547332	-1.906109	3.052000
1.578357	-1.921656	3.099000
1.608938	-1.908666	3.144000
1.640191	-1.883884	3.191000
1.670973	-1.873398	3.237000
1.702560	-1.885157	3.284000
1.733527	-1.868327	3.330000
1.765229	-1.837296	3.376000
1.867009	-1.791105	3.422000
1.896862	-1.756165	3.577000
1.928421	-1.733542	3.623000
1.958932	-1.740257	3.669000
1.990706	-1.724803	3.715000
2.096641	-1.698888	3.761000
2.127329	-1.694614	3.921000
2.158251	-1.676197	3.967000
2.189534	-1.668434	4.013000
2.219549	-1.686279	4.059000
2.249602	-1.678322	4.106000
2.281376	-1.654504	4.152000
2.312303	-1.634155	4.199000
2.343316	-1.639717	4.244000
2.373467	-1.625841	4.290000
2.405189	-1.599109	4.337000
2.435966	-1.574589	4.383000
2.466924	-1.578469	4.429000
2.496510	-1.572210	4.475000
2.599768	-1.478855	4.522000
2.630822	-1.465929	4.676000
2.661723	-1.438868	4.722000
2.693031	-1.411473	4.769000
2.723596	-1.411420	4.815000
2.830689	-1.423645	4.861000
2.860406	-1.418302	5.021000
2.891352	-1.433689	5.067000
2.921414	-1.435230	5.112000
2.953050	-1.429309	5.159000
2.983872	-1.441484	5.206000
3.015270	-1.456279	5.252000
3.046126	-1.444997	5.298000
3.076808	-1.426871	5.345000
3.108496	-1.429139	5.392000
3.139608	-1.447064	5.438000
3.170164	-1.443682	5.484000
3.199074	-1.434199	5.530000
3.320379	-1.446047	5.577000
3.351034	-1.445293	5.757000
3.380965	-1.480373	5.803000
3.412140	-1.506703	5.848000
3.442767	-1.507168	5.895000
3.561777	-1.489884	5.941000
3.593656	-1.508441	6.121000
3.624290	-1.507231	6.167000
3.655892	-1.525026	6.213000
3.686209	-1.513234	6.260000
3.718096	-1.482281	6.306000
3.749372	-1.456045	6.352000
3.780681	-1.461242	6.399000
3.811377	-1.445484	6.445000
3.841833	-1.414963	6.492000
3.872871	-1.385907	6.538000
3.903690	-1.390033	6.585000
3.934606	-1.390689	6.631000
4.196066	-1.405696	6.677000
4.441654	-1.392143	7.068000
4.472107	-1.337511	7.437000
4.501452	-1.322700	7.483000
4.532795	-1.310595	7.528000
4.564003	-1.323735	7.575000
4.595258	-1.314823	7.622000
4.625907	-1.292707	7.668000
4.657390	-1.281314	7.714000
4.689106	-1.304004	7.761000
4.790890	-1.321732	7.807000
4.821363	-1.356905	7.962000
4.852923	-1.384868	8.008000
4.883656	-1.395770	8.055000
4.914428	-1.405831	8.101000
5.030828	-1.436164	8.147000
5.062404	-1.455283	8.321000
5.092502	-1.486840	8.367000
5.123908	-1.493638	8.413000
5.153993	-1.482621	8.460000
5.183972	-1.475006	8.505000
5.214465	-1.505949	8.552000
5.246270	-1.531167	8.598000
5.278053	-1.540402	8.645000
5.308764	-1.548991	8.691000
5.339929	-1.581687	8.738000
5.371352	-1.625596	8.784000
5.402376	-1.644690	8.831000
5.521998	-1.733288	8.877000
5.552307	-1.734157	9.056000
5.582837	-1.738463	9.102000
5.613310	-1.772845	9.149000
5.643679	-1.790672	9.194000
5.764793	-1.779738	9.241000
5.795258	-1.852853	9.421000
5.825231	-1.853098	9.467000
5.856052	-1.858419	9.514000
5.887206	-1.886184	9.560000
5.918385	-1.889482	9.606000
5.949467	-1.882178	9.653000
5.980479	-1.877342	9.698000
6.011148	-1.905666	9.744000
6.041700	-1.919673	9.791000
6.071908	-1.907594	9.836000
6.103114	-1.906662	9.883000
6.133253	-1.922864	9.929000
6.163926	-1.939218	9.976000
6.268558	-1.906141	10.022000
6.298928	-1.906428	10.177000
6.331151	-1.882972	10.224000
6.361483	-1.851431	10.270000
6.391540	-1.842099	10.316000
6.497241	-1.852724	10.362000
6.527518	-1.781255	10.521000
6.558917	-1.771974	10.567000
6.590142	-1.743769	10.613000
6.621104	-1.702728	10.660000
6.651414	-1.671256	10.706000
6.683284	-1.668063	10.752000
6.714051	-1.640943	10.798000
6.743583	-1.610215	10.844000
6.773331	-1.589918	10.890000
6.804768	-1.599130	10.936000
6.836028	-1.589134	10.982000
6.867237	-1.555221	11.029000
6.898178	-1.526530	11.075000
7.001080	-1.489299	11.121000
7.032073	-1.473151	11.276000
7.062610	-1.494433	11.323000
7.093400	-1.520561	11.369000
7.124495	-1.532108	11.416000
7.231296	-1.541748	11.462000
7.261880	-1.626781	11.621000
7.293294	-1.631181	11.667000
7.324495	-1.662563	11.714000
7.354982	-1.693526	11.760000
7.386208	-1.701310	11.807000
7.416958	-1.699619	11.853000
7.447152	-1.707827	11.899000
7.478145	-1.722635	11.946000
7.509567	-1.713938	11.992000
7.540389	-1.709380	12.039000
7.571596	-1.720563	12.085000
7.601553	-1.760454	12.131000
7.862908	-1.730177	12.177000
8.107871	-1.747218	12.569000
8.138732	-1.739116	12.937000
8.169769	-1.736080	12.982000
8.200457	-1.722001	13.029000
8.232238	-1.713496	13.075000
8.263452	-1.724793	13.121000
8.294348	-1.710662	13.168000
8.325014	-1.674021	13.215000
8.355455	-1.641790	13.261000
8.458815	-1.625468	13.307000
8.489438	-1.583305	13.462000
8.520990	-1.577246	13.508000
8.551156	-1.589938	13.554000
8.582845	-1.589938	13.601000
8.698875	-1.560426	13.647000
8.728955	-1.459026	13.821000
8.759794	-1.418739	13.867000
8.790163	-1.409098	13.914000
8.821898	-1.386459	13.960000
8.852687	-1.349822	14.006000
8.884226	-1.316242	14.053000
8.914757	-1.316994	14.099000
8.945741	-1.335283	14.145000
8.976728	-1.337318	14.191000
9.006548	-1.333607	14.237000
9.037150	-1.343129	14.284000
9.067857	-1.371442	14.330000
9.099309	-1.374040	14.376000
9.202952	-1.371072	14.422000
9.234358	-1.353534	14.577000
9.265089	-1.321427	14.624000
9.295716	-1.295193	14.670000
9.325515	-1.297953	14.716000
9.430725	-1.284974	14.762000
9.462402	-1.252012	14.921000
9.492595	-1.248890	14.968000
9.524892	-1.235479	15.014000
9.555472	-1.229715	15.060000
9.586723	-1.254615	15.106000
9.616966	-1.268407	15.153000
9.648091	-1.264451	15.199000
9.678505	-1.257619	15.245000
9.708646	-1.266239	15.290000
9.739192	-1.281704	15.337000
9.770556	-1.268927	15.383000
9.801512	-1.243527	15.430000
9.832592	-1.220251	15.476000
9.935913	-1.223666	15.522000
9.966311	-1.223507	15.677000
9.997226	-1.254626	15.724000
10.027958	-1.267668	15.770000
10.058806	-1.272439	15.815000
10.165079	-1.286348	15.862000
10.195906	-1.366967	16.021000
10.227086	-1.374157	16.067000
10.258144	-1.403150	16.114000
10.288886	-1.405906	16.159000
10.318789	-1.384496	16.206000
10.349647	-1.354434	16.252000
10.380698	-1.348879	16.299000
10.411505	-1.338422	16.345000
10.442436	-1.297446	16.392000
10.474275	-1.239753	16.438000
10.505304	-1.192491	16.484000
10.535815	-1.152932	16.530000
10.654885	-0.972926	16.576000
10.686666	-0.952703	16.757000
10.718121	-0.914581	16.803000
10.749298	-0.875915	16.850000
10.780160	-0.872328	16.896000
10.898829	-0.873439	16.942000
10.929937	-0.897810	17.121000
10.961484	-0.904179	17.168000
10.991227	-0.896183	17.214000
11.021521	-0.892492	17.260000
11.052108	-0.920668	17.306000
11.083603	-0.927826	17.353000
11.114621	-0.914581	17.399000
11.145971	-0.898899	17.446000
11.177050	-0.919597	17.492000
11.208261	-0.945088	17.538000
11.239233	-0.944719	17.585000
11.270202	-0.932087	17.631000
11.530506	-0.887961	17.678000
11.775968	-0.876029	18.068000
11.807508	-0.772317	18.437000
11.837917	-0.754429	18.482000
11.869026	-0.741936	18.530000
11.899945	-0.698620	18.575000
11.930701	-0.643369	18.622000
11.960971	-0.600361	18.668000
11.991478	-0.595397	18.715000
12.023121	-0.576204	18.761000
12.126342	-0.532913	18.807000
12.157267	-0.528661	18.961000
12.187266	-0.506021	19.007000
12.217018	-0.478663	19.052000
12.247625	-0.482746	19.098000
12.365151	-0.490539	19.145000
12.396351	-0.491230	19.321000
12.427496	-0.475440	19.367000
12.457854	-0.442956	19.413000
12.489635	-0.411763	19.458000
12.520563	-0.415476	19.506000
12.550847	-0.415391	19.551000
12.580407	-0.403215	19.598000
12.611713	-0.396255	19.644000
12.642171	-0.413572	19.690000
12.673300	-0.441391	19.735000
12.703178	-0.447159	19.781000
12.735348	-0.443793	19.828000
12.766124	-0.450160	19.874000
12.868253	-0.439359	19.921000
12.899164	-0.443509	20.075000
12.929930	-0.474347	20.121000
12.961208	-0.475640	20.168000
12.992555	-0.457842	20.214000
13.099484	-0.440409	20.260000
13.130611	-0.429058	20.421000
13.161555	-0.412090	20.468000
13.192483	-0.429101	20.514000
13.223602	-0.431375	20.561000
13.253725	-0.418268	20.606000
13.284395	-0.408209	20.653000
13.315173	-0.429533	20.699000
13.346152	-0.457098	20.745000
13.377366	-0.465415	20.792000
13.407618	-0.472097	20.838000
13.439506	-0.498501	20.885000
13.469866	-0.541757	20.930000
13.501205	-0.562380	20.976000
13.603099	-0.633519	21.023000
13.634276	-0.647664	21.178000
13.664302	-0.648001	21.224000
13.695854	-0.651628	21.270000
13.727619	-0.684117	21.316000
13.833163	-0.699654	21.363000
13.864230	-0.743468	21.521000
13.893809	-0.761876	21.568000
13.924807	-0.753835	21.613000
13.955628	-0.746347	21.660000
13.986776	-0.770074	21.706000
14.017653	-0.799497	21.753000
14.049046	-0.804161	21.799000
14.080145	-0.797244	21.846000
14.111372	-0.805739	21.892000
14.142729	-0.842824	21.939000
14.173515	-0.857506	21.985000
14.204685	-0.856640	22.031000
14.323495	-0.926128	22.077000
14.354026	-0.935482	22.256000
14.384634	-0.973838	22.303000
14.415081	-1.008113	22.349000
14.446470	-1.012430	22.395000
14.566624	-1.010488	22.442000
14.596379	-1.114145	22.621000
14.626910	-1.130042	22.667000
14.658060	-1.177197	22.713000
14.689632	-1.209227	22.760000
14.720497	-1.219762	22.806000
14.751872	-1.232570	22.853000
14.782647	-1.266746	22.899000
14.813378	-1.310531	22.945000
14.843159	-1.321743	22.991000
14.874171	-1.319015	23.037000
14.905019	-1.320587	23.083000
14.935829	-1.351252	23.129000
14.966127	-1.359377	23.176000
15.441882	-1.404263	23.222000
15.472408	-1.452779	23.933000
15.503124	-1.462122	23.979000
15.534249	-1.454031	24.026000
15.564707	-1.441497	24.072000
15.596153	-1.451209	24.118000
15.627814	-1.452906	24.165000
15.659022	-1.432055	24.211000
15.689149	-1.407879	24.257000
15.791079	-1.439481	24.304000
15.822062	-1.419331	24.458000
15.853376	-1.399130	24.504000
15.884375	-1.409354	24.550000
15.915239	-1.419044	24.596000
16.033592	-1.428683	24.643000
16.064649	-1.510954	24.821000
16.095832	-1.514464	24.867000
16.127394	-1.526447	24.913000
16.157228	-1.537125	24.960000
16.187920	-1.520285	25.006000
16.217607	-1.497571	25.051000
16.249251	-1.491633	25.098000
16.279887	-1.506278	25.144000
16.311806	-1.496745	25.191000
16.342565	-1.458421	25.237000
16.373547	-1.426212	25.282000
16.404125	-1.430232	25.328000
16.434578	-1.432757	25.375000
16.537306	-1.404454	25.421000
16.568462	-1.429775	25.576000
16.599646	-1.437922	25.622000
16.629842	-1.438730	25.669000
16.661459	-1.453109	25.715000
16.767833	-1.474253	25.761000
16.799227	-1.453392	25.921000
16.829277	-1.473384	25.967000
16.858759	-1.473395	26.013000
16.890124	-1.465578	26.060000
16.920977	-1.467571	26.105000
16.952270	-1.493160	26.152000
16.982407	-1.493500	26.198000
17.014170	-1.470254	26.244000
17.045202	-1.442768	26.291000
17.076808	-1.435674	26.337000
17.106170	-1.417635	26.384000
17.137766	-1.374497	26.430000
17.167630	-1.333510	26.476000
17.271696	-1.289456	26.522000
17.302599	-1.273697	26.677000
17.333139	-1.290219	26.723000
17.364939	-1.321000	26.769000
17.395223	-1.324906	26.816000
17.501199	-1.312537	26.862000
17.531735	-1.290293	27.021000
17.562310	-1.267709	27.068000
17.593151	-1.280255	27.114000
17.624405	-1.320745	27.160000
17.655239	-1.334211	27.207000
17.685860	-1.329126	27.253000
17.717759	-1.325274	27.298000
17.748432	-1.346439	27.345000
17.779264	-1.348835	27.391000
17.808853	-1.326682	27.438000
17.840351	-1.298777	27.484000
17.870937	-1.294365	27.530000
17.991187	-1.350510	27.577000
18.022101	-1.397537	27.757000
18.052347	-1.424252	27.803000
18.084064	-1.428492	27.850000
18.114401	-1.434965	27.895000
18.233826	-1.468156	27.942000
18.265010	-1.466734	28.121000
18.295840	-1.482428	28.168000
18.327645	-1.482726	28.214000
18.359315	-1.478450	28.261000
18.389708	-1.480670	28.307000
18.420527	-1.514708	28.354000
18.451578	-1.544889	28.399000
18.482211	-1.553022	28.446000
18.511858	-1.559705	28.492000
18.543460	-1.581793	28.538000
18.574159	-1.600581	28.585000
18.605310	-1.586343	28.630000
18.865958	-1.558627	28.677000
19.111423	-1.546088	29.069000
19.142649	-1.526330	29.437000
19.173381	-1.505451	29.483000
19.204510	-1.480330	29.529000
19.234835	-1.483638	29.576000
19.266085	-1.476373	29.622000
19.297234	-1.462653	29.668000
19.328433	-1.456278	29.713000
19.358066	-1.480085	29.761000
19.461762	-1.464146	29.807000
19.493345	-1.470243	29.962000
19.524031	-1.468155	30.009000
19.554991	-1.442494	30.055000
19.585936	-1.417008	30.101000
19.701818	-1.407549	30.147000
19.733355	-1.375142	30.321000
19.763512	-1.391113	30.368000
19.793787	-1.398090	30.414000
19.823699	-1.385483	30.459000
19.855627	-1.367306	30.506000
19.886801	-1.369119	30.552000
19.917301	-1.385515	30.599000
19.948597	-1.380009	30.645000
19.979832	-1.366555	30.691000
20.010516	-1.360733	30.737000
20.040772	-1.385864	30.783000
20.070582	-1.388610	30.830000
20.101926	-1.374624	30.876000
20.205351	-1.392100	30.922000
20.236114	-1.381676	31.076000
20.267635	-1.369225	31.123000
20.298348	-1.381772	31.170000
20.328951	-1.392419	31.216000
20.434850	-1.372388	31.261000
20.465600	-1.326981	31.421000
20.496668	-1.319224	31.468000
20.527741	-1.314414	31.514000
20.558748	-1.336183	31.560000
20.590802	-1.387699	31.607000
20.621272	-1.410276	31.653000
20.651966	-1.407124	31.700000
20.683404	-1.396385	31.746000
20.714271	-1.407677	31.793000
20.744778	-1.395112	31.839000
20.774559	-1.361571	31.886000
20.805915	-1.326028	31.932000
20.924792	-1.334730	31.978000
20.955739	-1.343003	32.157000
20.986891	-1.371696	32.203000
21.017389	-1.372089	32.249000
21.048841	-1.354232	32.296000
21.168104	-1.338855	32.342000
21.199222	-1.331114	32.521000
21.230090	-1.350044	32.567000
21.260803	-1.387454	32.613000
21.292937	-1.387614	32.660000
21.323692	-1.361390	32.706000
21.354837	-1.358600	32.753000
21.383955	-1.408503	32.798000
21.415411	-1.439236	32.845000
21.445513	-1.447085	32.892000
21.477263	-1.441485	32.938000
21.507766	-1.455612	32.984000
21.539107	-1.456182	33.030000
21.569708	-1.429034	33.075000
21.671518	-1.477774	33.122000
21.702223	-1.486024	33.276000
21.733028	-1.481538	33.322000
21.764482	-1.489426	33.368000
21.794751	-1.523319	33.413000
21.902235	-1.531875	33.460000
21.933449	-1.541178	33.621000
21.964154	-1.535873	33.668000
21.995921	-1.518037	33.715000
22.026398	-1.503488	33.761000
22.056628	-1.519811	33.807000
22.086357	-1.521104	33.853000
22.118057	-1.503340	33.899000
22.148878	-1.486893	33.945000
22.180313	-1.495610	33.992000
22.210626	-1.508961	34.038000
22.242917	-1.500467	34.084000
22.272833	-1.479334	34.131000
22.533450	-1.498208	34.177000
22.778979	-1.490561	34.568000
22.809615	-1.428502	34.937000
22.841342	-1.433997	34.983000
22.872156	-1.471335	35.030000
22.903893	-1.488399	35.076000
22.934269	-1.491347	35.122000
22.965151	-1.497180	35.168000
22.995274	-1.532448	35.214000
23.025915	-1.557666	35.261000
23.129949	-1.563017	35.307000
23.159997	-1.568073	35.462000
23.191963	-1.552302	35.508000
23.222354	-1.534146	35.554000
23.253194	-1.539276	35.601000
23.369473	-1.563876	35.646000
23.398907	-1.571946	35.821000
23.430397	-1.573911	35.867000
23.461325	-1.549245	35.914000
23.492706	-1.519830	35.960000
23.523790	-1.510655	36.006000
23.554322	-1.518154	36.052000
23.585774	-1.506149	36.098000
23.616172	-1.494763	36.144000
23.646441	-1.495929	36.191000
23.677125	-1.519500	36.238000
23.708156	-1.521093	36.283000
23.738975	-1.516520	36.330000
23.770857	-1.516605	36.376000
23.873710	-1.560997	36.423000
23.905264	-1.557900	36.578000
23.935913	-1.586912	36.624000
23.966057	-1.602249	36.671000
23.996221	-1.597418	36.717000
24.101851	-1.587262	36.763000
24.133416	-1.570623	36.921000
24.164296	-1.552271	36.967000
24.195528	-1.560394	37.014000
24.226186	-1.572368	37.060000
24.257846	-1.561716	37.107000
24.289043	-1.547173	37.153000
24.319314	-1.548475	37.199000
24.348734	-1.560067	37.246000
24.379984	-1.536085	37.291000
24.410922	-1.492798	37.337000
24.441921	-1.443809	37.384000
24.472704	-1.436536	37.431000
24.592265	-1.387306	37.477000
24.623271	-1.410074	37.657000
24.655290	-1.407252	37.703000
24.685855	-1.396882	37.749000
24.716777	-1.396204	37.795000
24.836447	-1.427868	37.842000
24.867352	-1.459576	38.021000
24.898550	-1.488250	38.068000
24.928646	-1.488696	38.115000
24.959768	-1.474721	38.160000
24.990823	-1.460828	38.207000
25.020786	-1.470935	38.253000
25.052008	-1.464784	38.300000
25.083107	-1.453301	38.346000
25.114753	-1.449015	38.392000
25.145629	-1.477096	38.439000
25.176296	-1.497191	38.485000
25.207915	-1.498144	38.531000
25.326941	-1.538929	38.577000
25.357871	-1.535122	38.757000
25.389106	-1.534696	38.803000
25.419214	-1.564086	38.850000
25.450148	-1.577689	38.896000
25.570096	-1.572631	38.942000
25.600909	-1.592033	39.122000
25.630753	-1.573205	39.167000
25.660607	-1.566625	39.214000
25.692178	-1.586425	39.260000
25.723546	-1.589515	39.306000
25.754566	-1.585748	39.351000
25.785504	-1.583804	39.398000
25.816671	-1.608417	39.445000
25.847419	-1.624982	39.491000
25.878312	-1.621417	39.537000
25.907847	-1.612489	39.583000
25.939009	-1.622105	39.630000
25.969457	-1.648708	39.676000
26.445587	-1.684416	39.721000
26.475616	-1.732432	40.434000
26.506033	-1.752328	40.480000
26.536874	-1.742797	40.526000
26.567501	-1.723387	40.573000
26.598073	-1.703850	40.618000
26.629691	-1.716247	40.664000
26.661087	-1.709689	40.711000
26.692080	-1.684047	40.757000
26.794848	-1.678610	40.804000
26.824812	-1.665716	40.958000
26.855648	-1.655944	41.004000
26.886946	-1.666497	41.051000
26.917903	-1.680334	41.097000
27.036583	-1.670696	41.143000
27.067075	-1.656441	41.322000
27.098520	-1.637148	41.367000
27.129697	-1.614256	41.414000
27.160925	-1.615313	41.460000
27.191078	-1.619101	41.507000
27.222350	-1.605192	41.553000
27.252613	-1.589313	41.600000
27.283847	-1.591927	41.646000
27.314158	-1.621449	41.693000
27.345987	-1.628473	41.739000
27.376726	-1.622432	41.785000
27.408044	-1.621258	41.831000
27.526874	-1.645820	41.877000
27.557818	-1.641887	42.057000
27.589477	-1.654887	42.103000
27.620772	-1.636449	42.150000
27.651667	-1.607169	42.196000
27.770338	-1.591884	42.242000
27.800957	-1.514197	42.421000
27.832516	-1.503022	42.467000
27.862812	-1.509014	42.513000
27.892465	-1.498474	42.559000
27.923001	-1.484676	42.606000
27.954376	-1.482024	42.652000
27.985871	-1.508121	42.698000
28.015542	-1.511464	42.744000
28.047763	-1.502831	42.790000
28.079019	-1.494251	42.837000
28.109812	-1.516476	42.883000
28.140521	-1.524156	42.930000
28.171069	-1.516402	42.976000
28.273754	-1.533274	43.021000
28.304849	-1.523021	43.177000
28.336129	-1.508620	43.224000
28.367099	-1.510422	43.270000
28.398781	-1.523730	43.317000
28.503359	-1.512215	43.363000
28.534953	-1.430791	43.521000
28.564996	-1.405641	43.568000
28.595382	-1.378504	43.613000
28.625718	-1.377211	43.659000
28.657284	-1.401079	43.706000
28.688840	-1.401812	43.753000
28.719739	-1.390550	43.799000
28.751344	-1.380476	43.846000
28.782165	-1.401185	43.892000
28.813146	-1.405535	43.938000
28.843093	-1.394016	43.984000
28.874360	-1.384706	44.031000
28.994145	-1.393117	44.078000
29.024215	-1.384274	44.256000
29.055444	-1.406171	44.303000
29.085617	-1.409385	44.349000
29.116683	-1.395102	44.395000
29.236795	-1.384772	44.442000
29.267208	-1.390443	44.621000
29.297997	-1.383679	44.667000
29.329008	-1.400434	44.714000
29.360412	-1.388122	44.759000
29.391125	-1.365049	44.805000
29.421605	-1.347574	44.851000
29.450645	-1.360266	44.897000
29.481150	-1.364265	44.942000
29.512281	-1.348347	44.988000
29.542848	-1.327815	45.034000
29.573703	-1.326672	45.081000
29.605149	-1.340363	45.127000
29.636540	-1.329942	45.173000
29.881548	-1.278553	45.220000
30.123708	-1.264926	45.585000
30.154495	-1.207059	45.955000
30.185396	-1.177633	46.001000
30.216099	-1.151122	46.048000
30.245465	-1.152201	46.093000
30.276743	-1.163658	46.140000
30.308226	-1.154084	46.186000
30.339634	-1.132337	46.232000
30.457598	-1.109499	46.278000
30.488151	-1.090272	46.457000
30.519298	-1.093814	46.503000
30.550781	-1.093963	46.549000
30.581937	-1.082330	46.595000
30.701350	-1.078682	46.641000
30.732633	-1.079998	46.822000
30.763628	-1.075057	46.868000
30.794458	-1.116384	46.914000
30.824639	-1.146680	46.961000
30.855557	-1.155544	47.007000
30.885883	-1.154399	47.054000
30.917770	-1.163042	47.100000
30.948554	-1.175070	47.146000
30.979664	-1.159087	47.192000
31.010271	-1.132144	47.238000
31.041602	-1.108756	47.285000
31.072793	-1.107906	47.331000
31.191430	-0.999128	47.378000
31.222317	-0.986383	47.557000
31.253879	-0.955703	47.603000
31.284057	-0.922809	47.649000
31.314603	-0.912375	47.696000
31.435464	-0.917072	47.742000
31.464617	-0.871469	47.922000
31.496507	-0.868487	47.968000
31.526543	-0.848336	48.014000
31.557777	-0.827898	48.061000
31.588816	-0.827305	48.107000
31.620424	-0.836783	48.154000
31.651038	-0.822460	48.199000
31.682679	-0.801728	48.246000
31.712848	-0.787536	48.292000
31.744116	-0.802628	48.338000
31.774736	-0.797794	48.385000
31.805190	-0.780502	48.431000
31.925513	-0.778480	48.478000
31.955177	-0.763355	48.657000
31.986348	-0.760394	48.703000
32.017098	-0.786712	48.750000
32.048648	-0.784858	48.796000
32.167394	-0.772475	48.843000
32.198636	-0.760096	49.022000
32.229716	-0.732393	49.068000
32.260765	-0.723646	49.114000
32.291791	-0.732088	49.161000
32.323769	-0.721815	49.207000
32.354518	-0.703769	49.254000
32.385583	-0.703102	49.301000
32.415102	-0.732531	49.347000
32.446470	-0.747500	49.393000
32.476497	-0.749000	49.439000
32.507677	-0.757737	49.485000
32.538141	-0.787621	49.531000
32.656701	-0.776094	49.578000
32.688657	-0.807198	49.756000
32.719387	-0.818762	49.802000
32.750808	-0.816488	49.848000
32.780727	-0.799455	49.895000
32.900781	-0.802186	49.941000
32.932706	-0.772508	50.122000
32.963171	-0.783645	50.168000
32.994531	-0.762012	50.214000
33.025445	-0.727886	50.260000
33.056706	-0.705167	50.307000
33.087174	-0.719203	50.353000
33.117294	-0.714507	50.400000
33.147997	-0.699211	50.446000
33.179061	-0.692071	50.492000
33.210455	-0.715089	50.538000
33.240959	-0.734448	50.585000
33.272657	-0.731348	50.630000
33.532930	-0.644282	50.676000
33.778082	-0.631406	51.069000
33.809611	-0.575767	51.437000
33.839823	-0.548491	51.484000
33.872074	-0.543771	51.530000
33.902796	-0.557726	51.576000
33.934152	-0.544885	51.623000
33.964840	-0.515470	51.669000
33.995839	-0.479173	51.716000
34.025831	-0.464083	51.760000
34.128882	-0.330092	51.807000
34.160050	-0.343018	51.962000
34.190407	-0.350105	52.008000
34.222086	-0.339559	52.054000
34.252962	-0.324825	52.100000
34.369340	-0.328222	52.147000
34.400077	-0.301765	52.322000
34.429536	-0.325122	52.368000
34.461318	-0.332653	52.415000
34.492398	-0.320128	52.460000
34.523308	-0.308196	52.507000
34.554019	-0.321355	52.553000
34.585199	-0.337445	52.599000
34.616908	-0.331943	52.646000
34.647135	-0.318691	52.692000
34.676793	-0.314141	52.738000
34.707861	-0.335097	52.783000
34.738714	-0.334736	52.830000
34.768998	-0.325300	52.877000
34.873274	-0.348508	52.923000
34.904104	-0.337963	53.078000
34.935449	-0.332113	53.124000
34.965933	-0.359256	53.169000
34.996137	-0.379343	53.216000
35.102092	-0.380907	53.263000
35.133356	-0.425578	53.422000
35.164112	-0.425142	53.468000
35.195238	-0.422244	53.515000
35.226245	-0.444141	53.561000
35.256395	-0.470337	53.607000
35.288104	-0.471482	53.653000
35.318796	-0.465479	53.698000
35.348938	-0.470337	53.745000
35.379257	-0.502936	53.791000
35.409614	-0.514037	53.837000
35.440913	-0.508916	53.883000
35.472423	-0.505893	53.930000
35.503245	-0.534099	53.976000
35.607217	-0.547887	54.023000
35.637221	-0.577316	54.178000
35.668074	-0.595882	54.225000
35.698716	-0.594039	54.271000
35.729926	-0.591387	54.317000
35.835666	-0.610719	54.363000
35.866749	-0.639127	54.522000
35.898109	-0.663242	54.568000
35.929135	-0.688792	54.615000
35.959853	-0.692918	54.661000
35.990134	-0.688949	54.707000
36.020791	-0.695521	54.753000
36.051302	-0.728342	54.799000
36.082643	-0.736816	54.845000
36.113430	-0.730680	54.892000
36.144733	-0.728353	54.938000
36.175889	-0.752544	54.985000
36.206465	-0.763788	55.031000
36.326627	-0.751573	55.077000
36.356977	-0.741640	55.257000
36.388579	-0.727559	55.303000
36.419505	-0.717807	55.349000
36.449658	-0.728744	55.396000
36.569232	-0.728797	55.442000
36.601011	-0.813821	55.622000
36.631503	-0.841398	55.668000
36.661948	-0.856311	55.714000
36.691291	-0.878821	55.760000
36.722993	-0.926468	55.807000
36.754430	-0.948958	55.853000
36.785329	-0.948565	55.899000
36.815306	-0.938196	55.945000
36.847285	-0.950317	55.991000
36.878195	-0.955968	56.038000
36.908975	-0.936341	56.084000
36.938599	-0.907646	56.130000
36.970005	-0.892684	56.176000
37.445258	-0.788391	56.222000
37.475895	-0.846420	56.934000
37.506802	-0.845097	56.980000
37.536917	-0.872062	57.027000
37.567624	-0.865301	57.073000
37.598193	-0.841057	57.119000
37.629053	-0.820534	57.166000
37.660913	-0.841184	57.212000
37.691831	-0.847413	57.258000
37.795469	-0.824694	57.305000
37.825446	-0.829242	57.459000
37.855808	-0.813164	57.505000
37.885961	-0.789346	57.552000
37.918351	-0.780070	57.598000
38.036038	-0.768276	57.645000
38.066949	-0.717259	57.822000
38.098205	-0.710348	57.868000
38.128978	-0.687143	57.915000
38.160522	-0.662150	57.961000
38.192078	-0.670060	58.008000
38.222823	-0.669571	58.054000
38.254153	-0.652150	58.101000
38.284863	-0.635459	58.147000
38.315866	-0.643253	58.194000
38.345566	-0.666380	58.240000
38.377495	-0.668237	58.287000
38.407968	-0.660049	58.333000
38.525770	-0.681777	58.380000
38.557200	-0.659732	58.557000
38.587526	-0.656985	58.603000
38.619770	-0.665756	58.650000
38.651038	-0.665001	58.696000
38.770193	-0.662338	58.742000
38.801023	-0.728204	58.922000
38.831599	-0.722270	58.968000
38.863727	-0.747710	59.014000
38.894864	-0.761652	59.061000
38.925322	-0.758596	59.108000
38.954768	-0.750501	59.154000
38.985598	-0.764909	59.200000
39.016985	-0.802945	59.246000
39.047934	-0.807347	59.293000
39.078618	-0.801147	59.339000
39.110424	-0.793746	59.386000
39.141565	-0.815080	59.431000
39.260101	-0.828831	59.478000
39.290881	-0.832436	59.656000
39.322437	-0.818347	59.703000
39.352952	-0.791228	59.749000
39.383267	-0.779391	59.794000
39.503805	-0.793427	59.841000
39.534051	-0.796852	60.022000
39.565342	-0.809727	60.067000
39.595173	-0.804194	60.114000
39.626218	-0.793651	60.160000
39.656637	-0.791906	60.206000
39.688450	-0.791987	60.253000
39.719269	-0.770907	60.299000
39.750360	-0.738339	60.345000
39.781658	-0.719890	60.392000
39.812354	-0.741797	60.438000
39.843556	-0.748748	60.484000
39.873748	-0.741342	60.531000
39.993595	-0.768314	60.577000
40.024067	-0.756066	60.757000
40.055416	-0.758297	60.803000
40.085739	-0.773085	60.849000
40.116269	-0.765405	60.896000
40.237195	-0.745499	60.941000
40.266442	-0.699569	61.122000
40.297694	-0.659732	61.168000
40.328386	-0.640431	61.212000
40.359527	-0.634748	61.260000
40.390833	-0.617409	61.306000
40.421863	-0.605819	61.352000
40.453062	-0.605904	61.399000
40.483615	-0.627611	61.444000
40.513945	-0.619785	61.491000
40.544879	-0.598182	61.537000
40.574791	-0.584005	61.583000
40.605609	-0.602753	61.629000
40.636934	-0.616094	61.675000
41.112122	-0.602489	61.722000
41.142836	-0.649944	62.434000
41.172832	-0.654811	62.481000
41.203309	-0.642456	62.526000
41.234911	-0.628310	62.572000
41.265818	-0.632542	62.618000
41.297185	-0.647313	62.665000
41.327781	-0.640335	62.711000
41.359375	-0.621546	62.757000
41.460739	-0.634057	62.804000
41.492172	-0.616477	62.958000
41.522802	-0.608652	63.004000
41.553555	-0.627335	63.050000
41.585230	-0.624227	63.097000
41.704116	-0.604589	63.143000
41.735749	-0.584569	63.322000
41.766157	-0.558607	63.368000
41.796652	-0.547270	63.414000
41.827651	-0.556190	63.460000
41.857916	-0.541682	63.506000
41.888700	-0.512615	63.553000
41.919023	-0.488968	63.599000
41.950828	-0.499266	63.646000
41.981827	-0.498185	63.692000
42.012719	-0.481048	63.738000
42.043587	-0.465798	63.785000
42.074755	-0.471207	63.831000
42.194252	-0.448564	63.877000
42.225255	-0.465522	64.057000
42.256695	-0.457439	64.103000
42.286910	-0.429081	64.149000
42.317717	-0.398171	64.195000
42.438455	-0.391687	64.242000
42.469877	-0.287718	64.422000
42.499838	-0.285328	64.469000
42.530664	-0.259041	64.515000
42.560814	-0.225733	64.561000
42.592531	-0.199169	64.607000
42.622051	-0.207727	64.653000
42.654095	-0.204111	64.700000
42.685309	-0.191036	64.746000
42.716400	-0.177566	64.792000
42.745905	-0.182690	64.838000
42.777503	-0.192202	64.884000
42.807511	-0.162765	64.931000
42.837787	-0.119106	64.976000
42.941652	-0.068830	65.023000
42.972824	-0.035762	65.178000
43.003569	-0.012394	65.224000
43.034242	-0.014296	65.270000
43.065398	0.007451	65.316000
43.171003	0.043787	65.363000
43.201495	0.128271	65.522000
43.231864	0.168424	65.569000
43.263155	0.201543	65.615000
43.294269	0.199763	65.661000
43.325464	0.212190	65.707000
43.356267	0.242807	65.753000
43.387131	0.274703	65.799000
43.418257	0.283662	65.845000
43.448584	0.281649	65.892000
43.479148	0.300516	65.938000
43.509671	0.329169	65.984000
43.540593	0.349742	66.031000
43.571454	0.332116	66.077000
43.675422	0.298808	66.123000
43.706118	0.261628	66.278000
43.737028	0.256484	66.324000
43.767643	0.270406	66.371000
43.798108	0.282220	66.417000
43.904032	0.264258	66.463000
43.934685	0.277777	66.622000
43.966337	0.259961	66.669000
43.997847	0.256081	66.715000
44.028907	0.268211	66.761000
44.059564	0.285561	66.808000
44.090817	0.277820	66.854000
44.121416	0.263039	66.901000
44.151524	0.270651	66.947000
44.181747	0.287012	66.992000
44.213195	0.292787	67.039000
44.244463	0.277724	67.086000
44.275435	0.288784	67.132000
44.535558	0.237748	67.178000
44.781033	0.230802	67.569000
44.812378	0.173184	67.938000
44.843046	0.202085	67.984000
44.873995	0.216856	68.031000
44.905290	0.194916	68.077000
44.936435	0.191999	68.123000
44.966927	0.201522	68.169000
44.997864	0.207396	68.215000
45.029155	0.185330	68.262000
45.131191	0.155974	68.308000
45.162886	0.130810	68.462000
45.193973	0.100544	68.508000
45.224903	0.094400	68.555000
45.255779	0.095932	68.601000
45.372978	0.086033	68.647000
45.404000	0.064363	68.822000
45.434638	0.042719	68.869000
45.464972	0.024420	68.915000
45.495625	0.030872	68.962000
45.526436	0.054268	69.008000
45.557389	0.059443	69.054000
45.588780	0.050515	69.100000
45.619825	0.064605	69.147000
45.651300	0.091151	69.193000
45.682022	0.104087	69.239000
45.712418	0.081737	69.286000
45.742499	0.076217	69.332000
45.862737	0.084806	69.378000
45.894331	0.109103	69.557000
45.924040	0.142995	69.603000
45.954163	0.160617	69.650000
45.985300	0.155012	69.696000
46.105765	0.169981	69.742000
46.136349	0.197324	69.922000
46.167198	0.209254	69.968000
46.197551	0.221002	70.015000
46.229726	0.198512	70.062000
46.260398	0.166320	70.107000
46.291420	0.161071	70.153000
46.321778	0.172159	70.200000
46.353721	0.172815	70.246000
46.383437	0.146475	70.292000
46.414010	0.140899	70.338000
46.443683	0.152420	70.384000
46.475815	0.161273	70.430000
46.506073	0.143981	70.477000
46.610295	0.179384	70.523000
46.641183	0.170581	70.678000
46.670334	0.171460	70.724000
46.701575	0.189996	70.770000
46.732754	0.211002	70.816000
46.838951	0.212382	70.863000
46.870223	0.272148	71.022000
46.900299	0.272318	71.067000
46.931805	0.271925	71.114000
46.962378	0.293676	71.160000
46.993277	0.323887	71.206000
47.022136	0.343080	71.252000
47.053972	0.341344	71.298000
47.084564	0.361736	71.344000
47.116166	0.391566	71.390000
47.146051	0.415826	71.437000
47.178199	0.405546	71.483000
47.208702	0.414301	71.529000
47.239720	0.444121	71.576000
47.342425	0.471964	71.622000
47.372886	0.497200	71.777000
47.404192	0.516483	71.823000
47.434891	0.512464	71.870000
47.466247	0.511143	71.916000
47.573051	0.533122	71.962000
47.604135	0.602399	72.122000
47.635080	0.640466	72.169000
47.666586	0.692330	72.215000
47.697124	0.721909	72.262000
47.726805	0.724591	72.308000
47.758054	0.746214	72.354000
47.788653	0.780997	72.400000
47.819663	0.809647	72.447000
47.850032	0.807612	72.493000
47.881519	0.840182	72.539000
47.912211	0.883098	72.585000
47.943640	0.901557	72.631000
48.203809	0.901833	72.677000
48.448896	0.880136	73.070000
48.481201	0.905968	73.438000
48.512223	0.902084	73.484000
48.542381	0.909733	73.530000
48.573103	0.935732	73.576000
48.604594	0.959679	73.623000
48.635005	0.957501	73.669000
48.665374	0.956178	73.715000
48.696207	0.980170	73.761000
48.799369	0.920374	73.808000
48.831651	0.920026	73.963000
48.862935	0.929273	74.009000
48.893676	0.922661	74.056000
48.923538	0.891752	74.102000
49.039258	0.882378	74.148000
49.070426	0.857996	74.322000
49.101663	0.860418	74.369000
49.132297	0.876117	74.415000
49.163108	0.883449	74.461000
49.194825	0.876635	74.508000
49.226239	0.898996	74.554000
49.256589	0.933352	74.601000
49.287034	0.953819	74.647000
49.317780	0.939985	74.693000
49.348721	0.944639	74.739000
49.379251	0.965517	74.786000
49.409928	0.986686	74.832000
49.529332	1.054370	74.878000
49.560174	1.073861	75.057000
49.591434	1.056163	75.104000
49.622364	1.051615	75.150000
49.653793	1.055536	75.196000
49.773201	1.060946	75.242000
49.804550	1.090733	75.423000
49.835572	1.085675	75.469000
49.866033	1.073110	75.515000
49.897850	1.076946	75.561000
49.929072	1.088708	75.608000
49.959802	1.100255	75.654000
49.989494	1.095144	75.701000
50.020374	1.106194	75.747000
50.050985	1.123648	75.793000
50.081761	1.126426	75.839000
50.112507	1.097096	75.885000
50.143728	1.086681	75.931000
50.263225	1.055696	75.978000
50.294274	1.064275	76.157000
50.325515	1.081338	76.203000
50.355899	1.086905	76.250000
50.386814	1.068497	76.295000
50.417428	1.076312	76.341000
50.520586	1.106471	76.387000
50.551097	1.147604	76.543000
50.582200	1.170299	76.589000
50.613483	1.184393	76.635000
50.644620	1.164659	76.681000
50.675481	1.161433	76.728000
50.705189	1.178571	76.774000
50.736565	1.199290	76.821000
50.767264	1.203076	76.867000
50.797928	1.207352	76.913000
50.828662	1.221909	76.960000
50.860003	1.234157	77.005000
50.891640	1.243277	77.053000
50.997383	1.298379	77.099000
51.028182	1.304069	77.257000
51.058751	1.306417	77.303000
51.089254	1.325237	77.350000
51.120261	1.341951	77.396000
51.240599	1.342267	77.442000
51.271656	1.307033	77.622000
51.301279	1.281878	77.669000
51.332570	1.259759	77.715000
51.363020	1.259450	77.760000
51.393923	1.266668	77.806000
51.424418	1.240169	77.853000
51.456212	1.189684	77.899000
51.487411	1.180967	77.945000
51.519178	1.202536	77.992000
51.548402	1.227052	78.038000
51.579751	1.223563	78.085000
51.610392	1.227084	78.131000
51.872398	1.297194	78.177000
52.117866	1.325595	78.570000
52.148941	1.257706	78.938000
52.180113	1.253745	78.985000
52.211377	1.250476	79.031000
52.241085	1.222780	79.077000
52.271312	1.213374	79.123000
52.301623	1.230742	79.168000
52.332514	1.245694	79.214000
52.362557	1.236256	79.260000
52.466533	1.248504	79.305000
52.496191	1.240488	79.461000
52.527348	1.231335	79.507000
52.558362	1.250117	79.553000
52.588942	1.277952	79.599000
52.707187	1.287557	79.645000
52.737252	1.251570	79.822000
52.768643	1.229469	79.868000
52.799941	1.205398	79.914000
52.830652	1.197849	79.960000
52.860698	1.196842	80.006000
52.891255	1.178559	80.052000
52.922104	1.143330	80.099000
52.952704	1.133510	80.145000
52.984490	1.136457	80.191000
53.015228	1.137392	80.237000
53.046780	1.114900	80.284000
53.077145	1.119470	80.331000
53.196642	1.143541	80.377000
53.228309	1.167902	80.557000
53.259531	1.191932	80.604000
53.290622	1.194138	80.650000
53.321310	1.168783	80.697000
53.441068	1.163609	80.743000
53.472294	1.085345	80.922000
53.502770	1.073882	80.968000
53.533504	1.064201	81.014000
53.563765	1.031262	81.061000
53.594272	0.996756	81.107000
53.625844	0.995962	81.154000
53.656412	1.013584	81.200000
53.687542	1.009384	81.246000
53.718376	0.992049	81.292000
53.749678	1.002191	81.338000
53.780362	1.010359	81.384000
53.810761	1.008380	81.430000
53.841007	0.980255	81.477000
53.944400	1.050988	81.523000
53.975806	1.053373	81.678000
54.006828	1.059364	81.724000
54.037239	1.071879	81.770000
54.068683	1.086376	81.817000
54.174926	1.080615	81.863000
54.205176	1.136797	82.022000
54.235618	1.105980	82.069000
54.265987	1.088198	82.115000
54.297735	1.087624	82.161000
54.328661	1.087762	82.207000
54.359506	1.062112	82.253000
54.390294	1.036211	82.300000
54.421596	1.028109	82.346000
54.453041	1.027612	82.392000
54.483087	1.011647	82.439000
54.512146	0.974097	82.485000
54.543310	0.954550	82.531000
54.574332	0.947991	82.576000
54.678585	0.847406	82.623000
54.709388	0.828132	82.778000
54.740102	0.799585	82.824000
54.770563	0.745884	82.870000
54.801870	0.713494	82.917000
54.907298	0.697304	82.963000
54.938286	0.637877	83.122000
54.969081	0.657791	83.169000
54.999765	0.682470	83.215000
55.031981	0.675184	83.262000
55.062573	0.672204	83.308000
55.093322	0.681853	83.354000
55.124394	0.685448	83.400000
55.155028	0.661865	83.446000
55.185220	0.633837	83.493000
55.215309	0.631124	83.539000
55.247176	0.640795	83.586000
55.278259	0.642331	83.632000
55.539823	0.530267	83.679000
55.785805	0.490570	84.069000
55.815252	0.423992	84.438000
55.846047	0.408115	84.485000
55.876416	0.435059	84.530000
55.907945	0.476226	84.577000
55.938614	0.492212	84.623000
55.970431	0.477273	84.669000
56.001395	0.479865	84.716000
56.032851	0.494337	84.762000
56.134534	0.506434	84.809000
56.164861	0.530890	84.963000
56.196002	0.538992	85.009000
56.227358	0.514208	85.055000
56.257977	0.500542	85.101000
56.374938	0.512843	85.147000
56.406314	0.525474	85.323000
56.437908	0.550715	85.369000
56.468576	0.562573	85.416000
56.499725	0.554702	85.462000
56.528880	0.571394	85.509000
56.560655	0.605762	85.554000
56.591450	0.646574	85.601000
56.623175	0.651704	85.648000
56.653087	0.665619	85.695000
56.685492	0.686742	85.741000
56.716149	0.702140	85.787000
56.747040	0.699744	85.833000
56.865308	0.814630	85.879000
56.895792	0.828682	86.056000
56.926921	0.868224	86.102000
56.956852	0.920799	86.149000
56.987290	0.966493	86.195000
57.108781	0.981036	86.242000
57.139907	1.132174	86.423000
57.169945	1.141813	86.469000
57.200890	1.150520	86.515000
57.231643	1.150478	86.562000
57.263142	1.126458	86.608000
57.293964	1.074191	86.654000
57.325562	1.043415	86.701000
57.355543	1.033121	86.748000
57.387783	1.025189	86.794000
57.418478	0.988357	86.840000
57.449139	0.970713	86.887000
57.478444	0.975484	86.933000
57.597895	0.985004	86.979000
57.629627	1.014378	87.157000
57.660230	1.016822	87.204000
57.690684	0.986516	87.251000
57.721214	0.975907	87.297000
57.840968	0.993159	87.343000
57.872939	1.056397	87.523000
57.903785	1.062058	87.568000
57.934372	1.036423	87.615000
57.966078	0.992514	87.662000
57.996885	0.965496	87.707000
58.028099	0.947388	87.755000
58.058618	0.918387	87.801000
58.089720	0.873102	87.847000
58.119766	0.862205	87.893000
58.151138	0.868001	87.940000
58.181004	0.870108	87.986000
58.212294	0.848276	88.032000
58.331184	0.874741	88.078000
58.362057	0.856981	88.257000
58.393117	0.861191	88.303000
58.423797	0.875904	88.349000
58.455645	0.881065	88.396000
58.575449	0.852210	88.442000
58.606813	0.851100	88.623000
58.637178	0.856494	88.669000
58.668043	0.875354	88.715000
58.699403	0.892015	88.762000
58.730786	0.880306	88.808000
58.760544	0.853110	88.854000
58.790494	0.846846	88.900000
58.821719	0.853448	88.947000
58.853287	0.853646	88.993000
58.883610	0.837454	89.039000
58.914931	0.845704	89.084000
58.945865	0.853469	89.131000
59.206576	0.727551	89.178000
59.452166	0.719384	89.570000
59.483127	0.713729	89.938000
59.514464	0.713921	89.984000
59.545182	0.675313	90.031000
59.575655	0.654059	90.076000
59.606469	0.648726	90.123000
59.637526	0.646596	90.169000
59.668536	0.619172	90.215000
59.698110	0.606713	90.261000
59.802121	0.672809	90.308000
59.833216	0.697304	90.463000
59.864168	0.724963	90.510000
59.895210	0.737169	90.556000
59.926481	0.728505	90.601000
60.042759	0.710368	90.648000
60.071691	0.719848	90.823000
60.099851	0.694304	90.869000
60.130800	0.695481	90.915000
60.161895	0.708651	90.961000
60.193024	0.694155	91.007000
60.223927	0.674971	91.054000
60.255241	0.676043	91.099000
60.285379	0.685533	91.146000
60.316309	0.685437	91.192000
60.346413	0.668672	91.238000
60.376901	0.672809	91.284000
60.407600	0.687388	91.330000
60.439014	0.697527	91.376000
60.543079	0.672990	91.422000
60.573282	0.669054	91.577000
60.604976	0.635885	91.623000
60.634996	0.616203	91.670000
60.666091	0.613054	91.717000
60.771857	0.606776	91.763000
60.802948	0.575107	91.923000
60.834274	0.578893	91.969000
60.865618	0.551466	92.016000
60.896986	0.557220	92.062000
60.927255	0.596571	92.109000
60.959445	0.642458	92.155000
60.990225	0.673752	92.202000
61.021166	0.694421	92.248000
61.050448	0.732947	92.294000
61.081216	0.781355	92.340000
61.111700	0.813549	92.386000
61.143575	0.819307	92.432000
61.262043	0.877777	92.479000
61.292942	0.893136	92.657000
61.324325	0.930167	92.704000
61.355051	0.959406	92.750000
61.385739	0.947832	92.796000
61.504924	0.931352	92.843000
61.537010	0.915362	93.022000
61.567621	0.911605	93.068000
61.598831	0.915191	93.115000
61.628009	0.916819	93.160000
61.660445	0.888258	93.207000
61.690380	0.870839	93.253000
61.721532	0.869104	93.300000
61.751690	0.867412	93.346000
61.783096	0.835265	93.392000
61.813888	0.800612	93.438000
61.845359	0.792671	93.484000
61.875478	0.792256	93.531000
61.906873	0.771261	93.577000
62.008410	0.716497	93.623000
62.039255	0.703082	93.777000
62.070757	0.682183	93.823000
62.101283	0.692180	93.870000
62.133711	0.719858	93.916000
62.239881	0.734709	93.963000
62.270884	0.743465	94.122000
62.301165	0.754208	94.168000
62.331276	0.746299	94.215000
62.361776	0.757400	94.261000
62.392590	0.776678	94.306000
62.423658	0.787654	94.352000
62.454258	0.768970	94.399000
62.485748	0.771229	94.446000
62.516805	0.799850	94.492000
62.548073	0.837082	94.538000
62.577262	0.856314	94.584000
62.608745	0.870934	94.630000
62.639148	0.909215	94.676000
63.114677	0.984802	94.723000
63.146087	1.195822	95.434000
63.176103	1.222683	95.481000
63.207252	1.257776	95.527000
63.238020	1.265161	95.574000
63.268158	1.276047	95.620000
63.299319	1.306554	95.666000
63.330279	1.344497	95.713000
63.361704	1.361704	95.759000
63.465397	1.444021	95.806000
63.495869	1.453406	95.960000
63.525012	1.452846	96.006000
63.556568	1.476472	96.052000
63.587679	1.511709	96.099000
63.705950	1.530193	96.145000
63.737395	1.525836	96.323000
63.767675	1.494935	96.369000
63.798985	1.472486	96.415000
63.830003	1.470308	96.461000
63.861098	1.468056	96.507000
63.891033	1.432291	96.554000
63.921644	1.397966	96.599000
63.952543	1.405667	96.645000
63.982800	1.417546	96.692000
64.013304	1.406185	96.738000
64.044990	1.384870	96.784000
64.076681	1.395111	96.831000
64.107522	1.416034	96.877000
64.211034	1.430748	96.923000
64.240219	1.450296	97.078000
64.271779	1.454315	97.125000
64.302970	1.420422	97.171000
64.333800	1.405667	97.217000
64.440289	1.412977	97.264000
64.471103	1.385040	97.423000
64.502429	1.402737	97.469000
64.533485	1.414658	97.515000
64.563773	1.391208	97.561000
64.593939	1.374747	97.608000
64.624573	1.384945	97.654000
64.655583	1.407454	97.700000
64.686578	1.420390	97.746000
64.716920	1.448657	97.793000
64.748737	1.503238	97.839000
64.779924	1.559736	97.885000
64.810973	1.578632	97.931000
64.930028	1.595402	97.978000
64.960870	1.592444	98.157000
64.992111	1.599716	98.204000
65.023106	1.618750	98.250000
65.052595	1.625940	98.295000
65.082453	1.605328	98.341000
65.187555	1.575314	98.388000
65.218965	1.593462	98.544000
65.249875	1.588339	98.590000
65.280901	1.612550	98.637000
65.311597	1.648899	98.683000
65.342953	1.665983	98.729000
65.373656	1.674825	98.775000
65.403744	1.708835	98.822000
65.434317	1.756817	98.869000
65.466026	1.790595	98.915000
65.496837	1.794948	98.961000
65.528362	1.819026	99.007000
65.558504	1.858268	99.054000
65.663875	1.899555	99.101000
65.695101	1.927481	99.257000
65.725458	1.944661	99.304000
65.755746	1.927155	99.350000
65.786342	1.935933	99.397000
65.906619	1.966655	99.443000
65.938090	1.987927	99.623000
65.968593	1.997153	99.669000
65.999327	1.975233	99.716000
66.030192	1.938447	99.762000
66.061871	1.924991	99.809000
66.092543	1.923304	99.855000
66.124037	1.906631	99.901000
66.155179	1.869260	99.948000
66.186220	1.864656	99.994000
66.216239	1.878049	100.040000
66.246619	1.884743	100.087000
66.276738	1.855305	100.133000
66.539190	1.744569	100.178000
66.784261	1.730299	100.570000
66.815187	1.598223	100.938000
66.845030	1.593005	100.984000
66.876063	1.616503	101.030000
66.906859	1.621339	101.077000
66.937485	1.582579	101.122000
66.967765	1.554720	101.168000
66.999798	1.554911	101.214000
67.030647	1.558124	101.261000
67.133905	1.552040	101.307000
67.163655	1.535147	101.462000
67.194427	1.508360	101.508000
67.225446	1.501074	101.554000
67.256333	1.522941	101.601000
67.373905	1.542389	101.647000
67.405185	1.504595	101.823000
67.435742	1.499761	101.869000
67.467236	1.465422	101.915000
67.497517	1.453387	101.961000
67.527905	1.463127	102.007000
67.558385	1.472955	102.054000
67.589465	1.452287	102.100000
67.620229	1.442046	102.146000
67.651962	1.460357	102.193000
67.682150	1.479540	102.239000
67.713960	1.472246	102.285000
67.744886	1.458083	102.332000
67.864018	1.480968	102.378000
67.895043	1.486378	102.557000
67.925462	1.508160	102.603000
67.956419	1.517977	102.650000
67.986853	1.493408	102.695000
68.108036	1.488254	102.742000
68.139131	1.526834	102.923000
68.168521	1.554922	102.969000
68.199623	1.589761	103.015000
68.230718	1.602316	103.062000
68.261659	1.587057	103.108000
68.292478	1.599770	103.155000
68.323703	1.627043	103.201000
68.354506	1.646801	103.247000
68.385232	1.636069	103.293000
68.416835	1.640959	103.339000
68.447292	1.660195	103.385000
68.478018	1.679343	103.431000
68.598418	1.679343	103.478000
68.628375	1.660852	103.658000
68.659586	1.623353	103.704000
68.689759	1.620988	103.751000
68.720930	1.632199	103.796000
68.841522	1.634084	103.843000
68.871296	1.630131	104.023000
68.902337	1.607236	104.069000
68.933224	1.589868	104.115000
68.964173	1.601807	104.161000
68.994823	1.615752	104.206000
69.025672	1.604839	104.253000
69.057381	1.577786	104.300000
69.087885	1.585741	104.346000
69.117981	1.601499	104.392000
69.148922	1.601308	104.439000
69.180462	1.574095	104.485000
69.210820	1.578782	104.532000
69.330674	1.583862	104.579000
69.360701	1.606356	104.758000
69.392480	1.623821	104.804000
69.423313	1.612029	104.850000
69.454524	1.597479	104.896000
69.573802	1.615422	104.943000
69.604966	1.619835	105.122000
69.635930	1.642887	105.168000
69.666095	1.652750	105.214000
69.696791	1.626557	105.260000
69.727947	1.625274	105.306000
69.758712	1.647861	105.352000
69.788623	1.662950	105.398000
69.819434	1.647542	105.445000
69.850813	1.638813	105.491000
69.882008	1.663354	105.538000
69.912980	1.689931	105.584000
69.943384	1.689594	105.631000
69.975139	1.675738	105.676000
70.448932	1.785895	105.723000
70.480411	1.906491	106.435000
70.511506	1.912327	106.482000
70.542301	1.945308	106.527000
70.573665	1.971457	106.574000
70.604622	1.970384	106.621000
70.636201	1.972146	106.667000
70.665275	2.009409	106.713000
70.696454	2.045572	106.759000
70.799474	2.098879	106.806000
70.830777	2.133552	106.960000
70.861411	2.138078	107.007000
70.892605	2.137538	107.053000
70.923885	2.173822	107.099000
71.042118	2.212811	107.145000
71.072982	2.299179	107.323000
71.103770	2.333724	107.369000
71.132444	2.335355	107.415000
71.164169	2.356465	107.461000
71.195295	2.400919	107.508000
71.226375	2.431131	107.554000
71.256548	2.426973	107.600000
71.288749	2.421512	107.646000
71.318807	2.449488	107.691000
71.349809	2.474015	107.738000
71.379022	2.468969	107.784000
71.410094	2.445436	107.830000
71.441173	2.465978	107.877000
71.545069	2.458387	107.923000
71.576525	2.483200	108.077000
71.606583	2.505975	108.124000
71.637693	2.506698	108.170000
71.668173	2.484990	108.216000
71.775388	2.506485	108.262000
71.805546	2.534788	108.423000
71.836395	2.568317	108.469000
71.867336	2.602991	108.516000
71.898285	2.613833	108.562000
71.929726	2.594697	108.608000
71.959768	2.618363	108.654000
71.991447	2.651205	108.700000
72.022150	2.665578	108.746000
72.052577	2.646944	108.792000
72.081851	2.653564	108.838000
72.113714	2.687115	108.885000
72.144724	2.705880	108.931000
72.264901	2.740737	108.978000
72.295743	2.739181	109.158000
72.326131	2.723239	109.204000
72.357326	2.756622	109.250000
72.388551	2.790242	109.296000
72.508283	2.801949	109.343000
72.539270	2.871398	109.523000
72.570319	2.860623	109.569000
72.601160	2.873911	109.615000
72.632501	2.918716	109.661000
72.662697	2.950474	109.707000
72.694353	2.953243	109.754000
72.724833	2.950410	109.800000
72.755152	2.996071	109.847000
72.785893	3.038116	109.893000
72.817296	3.049985	109.940000
72.848106	3.044261	109.986000
72.879885	3.086255	110.032000
72.998741	3.186683	110.078000
73.028683	3.245708	110.257000
73.060208	3.284539	110.303000
73.091073	3.287900	110.350000
73.122237	3.310776	110.396000
73.242022	3.375336	110.442000
73.272733	3.507832	110.623000
73.304189	3.565913	110.670000
73.335376	3.597879	110.716000
73.366140	3.598640	110.762000
73.396459	3.655476	110.808000
73.426602	3.723748	110.855000
73.457704	3.764089	110.901000
73.488530	3.769538	110.947000
73.520247	3.812719	110.993000
73.551273	3.887656	111.040000
73.582983	3.934062	111.087000
73.613763	3.941594	111.133000
73.872442	4.231131	111.179000
74.118527	4.252657	111.570000
74.149392	4.567698	111.937000
74.180072	4.599478	111.983000
74.210084	4.657265	112.029000
74.241017	4.711184	112.074000
74.270906	4.727856	112.120000
74.301609	4.774908	112.166000
74.332304	4.846761	112.213000
74.363822	4.885382	112.259000
74.467541	4.993245	112.306000
74.498628	5.038071	112.460000
74.529316	5.042959	112.506000
74.559143	5.079246	112.552000
74.589139	5.163920	112.598000
74.708432	5.223273	112.644000
74.739520	5.396281	112.823000
74.770430	5.428696	112.869000
74.801625	5.431380	112.916000
74.831975	5.501285	112.961000
74.863285	5.585380	113.007000
74.894119	5.628842	113.054000
74.924645	5.627501	113.100000
74.955740	5.674972	113.146000
74.986320	5.749419	113.193000
75.016547	5.790242	113.239000
75.047219	5.787607	113.285000
75.078160	5.810110	113.331000
75.110554	5.894076	113.377000
75.214104	6.021002	113.423000
75.244423	6.127922	113.578000
75.274211	6.200515	113.624000
75.304868	6.224854	113.671000
75.336547	6.257528	113.717000
75.443247	6.364176	113.763000
75.474073	6.518663	113.923000
75.505614	6.616378	113.970000
75.536087	6.682578	114.016000
75.567543	6.706022	114.062000
75.598192	6.741599	114.108000
75.629932	6.855481	114.155000
75.659329	6.945306	114.201000
75.690478	6.988154	114.247000
75.720951	7.008273	114.294000
75.752376	7.108752	114.340000
75.782726	7.193493	114.386000
75.814189	7.226631	114.433000
75.933321	7.417730	114.479000
75.964616	7.414502	114.658000
75.995150	7.453325	114.704000
76.026921	7.554365	114.751000
76.058178	7.615458	114.797000
76.176810	7.623963	114.844000
76.208673	7.845799	115.023000
76.238647	7.854230	115.070000
76.270779	7.956478	115.116000
76.300929	8.065099	115.162000
76.331916	8.119233	115.209000
76.361082	8.134768	115.255000
76.392961	8.230734	115.301000
76.423649	8.357939	115.347000
76.454897	8.435813	115.393000
76.485116	8.464730	115.439000
76.516649	8.543319	115.485000
76.547445	8.682614	115.532000
76.667445	9.011465	115.578000
76.698156	9.130804	115.758000
76.728759	9.198807	115.804000
76.760422	9.240939	115.850000
76.790465	9.380229	115.897000
76.911333	9.529477	115.943000
76.941422	9.943827	116.123000
76.972125	10.025170	116.169000
77.002198	10.044063	116.216000
77.033592	10.104778	116.262000
77.063873	10.243922	116.309000
77.095782	10.328551	116.355000
77.126070	10.346922	116.401000
77.157419	10.358515	116.447000
77.187108	10.469455	116.492000
77.219232	10.546759	116.539000
77.248644	10.562028	116.585000
77.279394	10.548962	116.631000
77.309305	10.649221	116.677000
77.785295	11.213825	116.723000
77.816721	12.056289	117.435000
77.847132	12.243462	117.481000
77.877635	12.377955	117.528000
77.908454	12.441524	117.574000
77.939541	12.515173	117.621000
77.970982	12.702440	117.667000
78.001715	12.847785	117.713000
78.032995	12.917770	117.760000
78.135477	13.354050	117.806000
78.166810	13.410853	117.961000
78.197789	13.460102	118.008000
78.228124	13.631382	118.054000
78.259273	13.764190	118.101000
78.376322	13.810690	118.147000
78.408116	14.151619	118.323000
78.439442	14.165966	118.370000
78.470560	14.260994	118.416000
78.501225	14.442438	118.462000
78.532788	14.547740	118.508000
78.563537	14.573860	118.555000
78.593280	14.632724	118.601000
78.623315	14.810124	118.646000
78.654548	14.932917	118.693000
78.685681	14.973631	118.740000
78.716423	14.989947	118.786000
78.747963	15.140212	118.832000
78.867533	15.474119	118.878000
78.898129	15.668596	119.058000
78.929677	15.776064	119.104000
78.960188	15.811437	119.151000
78.991921	15.927580	119.197000
79.111568	16.130209	119.243000
79.142486	16.551178	119.423000
79.173258	16.696158	119.469000
79.204338	16.744489	119.516000
79.235125	16.775570	119.562000
79.265014	16.949640	119.609000
79.295894	17.105466	119.655000
79.326382	17.171141	119.701000
79.357692	17.196145	119.747000
79.389163	17.363135	119.793000
79.420220	17.556551	119.840000
79.451030	17.648391	119.887000
79.481979	17.671601	119.933000
79.601203	18.185923	119.979000
79.632713	18.271476	120.157000
79.663470	18.501071	120.204000
79.693136	18.667835	120.251000
79.723770	18.743953	120.297000
79.845391	18.809370	120.342000
79.875787	19.360705	120.523000
79.905806	19.539385	120.569000
79.936279	19.738823	120.615000
79.967666	19.832454	120.661000
79.998492	19.852634	120.708000
80.029833	19.991223	120.754000
80.060282	20.222631	120.800000
80.091800	20.369712	120.846000
80.122180	20.427711	120.892000
80.152699	20.550671	120.939000
80.183056	20.838129	120.985000
80.213598	21.056794	121.031000
80.245092	21.170618	121.078000
80.348604	21.846880	121.124000
80.379653	21.930994	121.278000
80.409157	22.070047	121.323000
80.439177	22.352111	121.369000
80.469426	22.552763	121.414000
80.577748	22.651139	121.460000
80.608489	23.296825	121.622000
80.638493	23.355602	121.669000
80.670402	23.488194	121.716000
80.701267	23.766580	121.761000
80.732400	23.957604	121.807000
80.763073	24.045633	121.854000
80.794775	24.158357	121.900000
80.825109	24.475581	121.947000
80.855090	24.738949	121.993000
80.885716	24.877103	122.039000
80.916527	25.015323	122.085000
80.947883	25.361757	122.132000
81.210373	27.281675	122.178000
81.455114	27.593092	122.571000
81.485971	29.270569	122.939000
81.516051	29.460169	122.984000
81.546870	29.550598	123.031000
81.577719	29.765470	123.077000
81.609705	30.111371	123.123000
81.640416	30.336847	123.170000
81.672179	30.449786	123.217000
81.702114	30.636580	123.263000
81.805356	31.423387	123.310000
81.835099	31.632424	123.464000
81.866694	31.990367	123.510000
81.898572	32.224202	123.557000
81.929268	32.320991	123.603000
82.045488	32.459843	123.649000
82.076352	33.110706	123.823000
82.106886	33.386314	123.868000
82.137482	33.677265	123.915000
82.167247	33.824632	123.961000
82.198296	33.887879	124.008000
82.229207	34.132459	124.054000
82.261008	34.476420	124.101000
82.290613	34.670754	124.146000
82.322169	34.742455	124.192000
82.353133	34.918966	124.238000
82.383951	35.276081	124.285000
82.412741	35.511038	124.331000
82.444512	35.620052	124.377000
82.548278	36.528225	124.423000
82.579219	36.625235	124.578000
82.610567	36.797705	124.624000
82.641086	37.148600	124.671000
82.671874	37.365874	124.717000
82.778435	37.440143	124.762000
82.809146	38.164684	124.923000
82.840080	38.211498	124.969000
82.870499	38.376160	125.016000
82.901263	38.729131	125.062000
82.932596	38.957972	125.108000
82.964544	39.041369	125.155000
82.994909	39.146552	125.201000
83.026519	39.496071	125.247000
83.057168	39.779798	125.294000
83.087303	39.913822	125.339000
83.116738	40.008857	125.385000
83.147533	40.349284	125.431000
83.178644	40.686855	125.477000
83.282616	41.255312	125.523000
83.314303	41.502631	125.679000
83.345083	41.589196	125.726000
83.374925	41.642451	125.771000
83.405014	41.951260	125.817000
83.511875	42.256811	125.864000
83.542401	42.877235	126.023000
83.573788	43.168880	126.070000
83.604130	43.311772	126.116000
83.635325	43.433098	126.162000
83.666943	43.818047	126.209000
83.697853	44.201708	126.255000
83.728418	44.413639	126.301000
83.759459	44.547758	126.348000
83.790131	44.907879	126.394000
83.820158	45.296388	126.440000
83.850915	45.489522	126.486000
83.882417	45.571439	126.533000
84.001626	46.438040	126.579000
84.032860	46.585688	126.758000
84.064154	46.990415	126.805000
84.094842	47.289300	126.851000
84.126621	47.446464	126.898000
