Sample	2mm tape 2
date	07/01/2025
	
Temperature (K)	77.00
Angle (deg.)	0.000000
field / T	0.000000
	
		
Approx. trace time (s)	60.0	
		
Current / A	V1  -sample/ uV	time/s
3.550344	-1.884690	0.000000
3.455621	-1.892518	0.046000
3.370461	-1.904263	0.092000
3.327828	-1.910190	0.138000
3.285021	-1.918166	0.185000
3.242937	-1.924294	0.231000
3.200977	-1.933162	0.278000
3.159390	-1.943012	0.324000
2.921402	-1.934120	0.370000
3.228546	-1.923379	0.739000
3.270258	-1.822751	1.108000
3.312833	-1.821506	1.154000
3.355142	-1.823627	1.200000
3.398493	-1.825971	1.246000
3.440638	-1.828335	1.292000
3.482964	-1.829460	1.338000
3.526099	-1.834966	1.384000
3.567578	-1.841041	1.431000
3.708931	-1.858465	1.477000
3.751478	-1.862628	1.631000
3.793986	-1.869628	1.678000
3.836722	-1.873862	1.723000
3.879611	-1.879298	1.770000
4.031238	-1.881177	1.817000
4.074065	-1.892711	1.983000
4.117186	-1.891184	2.029000
4.159104	-1.891206	2.076000
4.201904	-1.891659	2.122000
4.245144	-1.890752	2.168000
4.287280	-1.809909	2.215000
4.327748	-1.618282	2.261000
4.370380	-1.941182	2.307000
4.413306	-1.875176	2.353000
4.455436	-1.883394	2.400000
4.498826	-1.884687	2.446000
4.541316	-1.887369	2.493000
4.584832	-1.890752	2.538000
4.725206	-1.897176	2.585000
4.767209	-1.899836	2.740000
4.810303	-1.900876	2.786000
4.852807	-1.902222	2.833000
4.895695	-1.903911	2.879000
5.040691	-1.904354	2.926000
5.083280	-1.907326	3.083000
5.125570	-1.907907	3.129000
5.168259	-1.909495	3.176000
5.209290	-1.910357	3.221000
5.250964	-1.909945	3.268000
5.294219	-1.908297	3.314000
5.337159	-1.902787	3.361000
5.380114	-1.895989	3.408000
5.423167	-1.886434	3.454000
5.465757	-1.880074	3.500000
5.508108	-1.875788	3.547000
5.550292	-1.870826	3.593000
5.592371	-1.863806	3.638000
5.732252	-1.824487	3.685000
5.774894	-1.801104	3.838000
5.817999	-1.780211	3.884000
5.859861	-1.761331	3.930000
5.902606	-1.741629	3.976000
6.050277	-1.727768	4.023000
6.090256	-1.700125	4.182000
6.131757	-1.699893	4.228000
6.174686	-1.699841	4.274000
6.216071	-1.700930	4.320000
6.258160	-1.701363	4.366000
6.301866	-1.698993	4.412000
6.344725	-1.689825	4.458000
6.386680	-1.665080	4.504000
6.427426	-1.641854	4.551000
6.470530	-1.625372	4.597000
6.512529	-1.614750	4.643000
6.553648	-1.610469	4.688000
6.596410	-1.607651	4.735000
6.740145	-1.592601	4.780000
6.781155	-1.586163	4.936000
6.823160	-1.584651	4.981000
6.864305	-1.587766	5.026000
6.906034	-1.590231	5.073000
7.057363	-1.588143	5.119000
7.099308	-1.540881	5.283000
7.141729	-1.506724	5.330000
7.184223	-1.477830	5.376000
7.228791	-1.458385	5.422000
7.270746	-1.442914	5.469000
7.313299	-1.429850	5.515000
7.356252	-1.426202	5.562000
7.397937	-1.426571	5.607000
7.439327	-1.429359	5.653000
7.480577	-1.432131	5.699000
7.523005	-1.437682	5.745000
7.565822	-1.448778	5.790000
7.607708	-1.458585	5.836000
8.260012	-1.523109	5.882000
8.302434	-1.475898	6.595000
8.343710	-1.469728	6.640000
8.386293	-1.457630	6.686000
8.428644	-1.447422	6.731000
8.471286	-1.439193	6.777000
8.512905	-1.429232	6.824000
8.554569	-1.413899	6.870000
8.597272	-1.383321	6.916000
8.748401	-1.294415	6.963000
8.790333	-1.265359	7.127000
8.833316	-1.233669	7.173000
8.874000	-1.213387	7.219000
8.916397	-1.205713	7.265000
9.075598	-1.207883	7.311000
9.118003	-1.256277	7.483000
9.159824	-1.274072	7.529000
9.200420	-1.285175	7.575000
9.242917	-1.293094	7.621000
9.285621	-1.300769	7.667000
9.328323	-1.310238	7.714000
9.370459	-1.318511	7.760000
9.413597	-1.324697	7.806000
9.456622	-1.329627	7.853000
9.498948	-1.325988	7.898000
9.540815	-1.319559	7.945000
9.583755	-1.310005	7.991000
9.623794	-1.300203	8.037000
9.766863	-1.279420	8.083000
9.810410	-1.270978	8.238000
9.851266	-1.261931	8.284000
9.894367	-1.256844	8.331000
9.938278	-1.255186	8.377000
10.083203	-1.253970	8.423000
10.124587	-1.249325	8.583000
10.167449	-1.246755	8.629000
10.210391	-1.245432	8.676000
10.251982	-1.242413	8.722000
10.294943	-1.239476	8.768000
10.338075	-1.236679	8.814000
10.380056	-1.235294	8.859000
10.422052	-1.236238	8.906000
10.465340	-1.242297	8.953000
10.507622	-1.245142	8.999000
10.548037	-1.244247	9.045000
10.590454	-1.245831	9.092000
10.634175	-1.249966	9.137000
10.775495	-1.248834	9.184000
10.818234	-1.252220	9.337000
10.860839	-1.259044	9.384000
10.901475	-1.267793	9.430000
10.943095	-1.278780	9.476000
11.091572	-1.292654	9.523000
11.133839	-1.302921	9.683000
11.176122	-1.280784	9.729000
11.219037	-1.261101	9.776000
11.262266	-1.254231	9.822000
11.304858	-1.241387	9.868000
11.347197	-1.217900	9.915000
11.390246	-1.194651	9.961000
11.432376	-1.177572	10.007000
11.472326	-1.161967	10.053000
11.514569	-1.147727	10.099000
11.558124	-1.137232	10.145000
11.600849	-1.129112	10.192000
11.643299	-1.128160	10.238000
11.785800	-1.172727	10.285000
11.826700	-1.194276	10.439000
11.868606	-1.218096	10.485000
11.911742	-1.240530	10.532000
11.955084	-1.261457	10.578000
12.100038	-1.280806	10.624000
12.142944	-1.292225	10.784000
12.186815	-1.293597	10.830000
12.228596	-1.288847	10.876000
12.271423	-1.279965	10.922000
12.312652	-1.266683	10.968000
12.355638	-1.252733	11.014000
12.396625	-1.238409	11.061000
12.438946	-1.222713	11.107000
12.482709	-1.210242	11.154000
12.525005	-1.193696	11.200000
12.567087	-1.181200	11.246000
12.609649	-1.178535	11.292000
12.653677	-1.182258	11.339000
13.302593	-1.148510	11.385000
13.346511	-1.046112	12.096000
13.388377	-1.035444	12.142000
13.431056	-1.024723	12.188000
13.473821	-1.021689	12.234000
13.517663	-1.019535	12.281000
13.559477	-1.014499	12.327000
13.600330	-1.008551	12.374000
13.642625	-1.003061	12.420000
13.790116	-0.991450	12.467000
13.832271	-0.989012	12.627000
13.874817	-0.987163	12.673000
13.917809	-0.980951	12.719000
13.961363	-0.962266	12.765000
14.117719	-0.940666	12.812000
14.160727	-0.934632	12.983000
14.203347	-0.936902	13.030000
14.243704	-0.941727	13.076000
14.286043	-0.947401	13.122000
14.330020	-0.951988	13.168000
14.372873	-0.953941	13.215000
14.414629	-0.952088	13.260000
14.457614	-0.950241	13.307000
14.501351	-0.949370	13.354000
14.542550	-0.949497	13.400000
14.582933	-0.949724	13.446000
14.626146	-0.950632	13.491000
14.668543	-0.951650	13.539000
14.810661	-0.939050	13.584000
14.853201	-0.929693	13.739000
14.896102	-0.911974	13.785000
14.938129	-0.876291	13.831000
14.979124	-0.829805	13.878000
15.127082	-0.785953	13.924000
15.168614	-0.624920	14.084000
15.211205	-0.581124	14.130000
15.254900	-0.541553	14.176000
15.297424	-0.506071	14.223000
15.339432	-0.478159	14.269000
15.382421	-0.454485	14.315000
15.425404	-0.434739	14.361000
15.466637	-0.416659	14.408000
15.507323	-0.400261	14.454000
15.550192	-0.383996	14.499000
15.592213	-0.368550	14.545000
15.634201	-0.355903	14.591000
15.677023	-0.344075	14.637000
15.818984	-0.308507	14.683000
15.859691	-0.329824	14.838000
15.902291	-0.362824	14.883000
15.944843	-0.391316	14.930000
15.988295	-0.400503	14.976000
16.135365	-0.384090	15.022000
16.178325	-0.316811	15.184000
16.221988	-0.297317	15.230000
16.263637	-0.281893	15.277000
16.305425	-0.275878	15.322000
16.348975	-0.273820	15.368000
16.390258	-0.270484	15.415000
16.431103	-0.269532	15.461000
16.474135	-0.280697	15.507000
16.517615	-0.315637	15.554000
16.560182	-0.353430	15.600000
16.602978	-0.378208	15.647000
16.646200	-0.397500	15.693000
16.688887	-0.413945	15.739000
16.827965	-0.374832	15.785000
16.871131	-0.348855	15.940000
16.914379	-0.338350	15.987000
16.956479	-0.337815	16.033000
16.999291	-0.345146	16.080000
17.144992	-0.355715	16.126000
17.186619	-0.388000	16.283000
17.229201	-0.386921	16.330000
17.272528	-0.399013	16.376000
17.313923	-0.418789	16.422000
17.355202	-0.420383	16.469000
17.398771	-0.411983	16.515000
17.441975	-0.415350	16.562000
17.484192	-0.421768	16.609000
17.526933	-0.421600	16.655000
17.570468	-0.416261	16.702000
17.613070	-0.409405	16.748000
17.655354	-0.402610	16.793000
17.696061	-0.403995	16.840000
18.347086	-0.513993	16.885000
18.389501	-0.577593	17.595000
18.433356	-0.595270	17.642000
18.473894	-0.617012	17.688000
18.515179	-0.636827	17.734000
18.558681	-0.658015	17.780000
18.600763	-0.670551	17.826000
18.644138	-0.665088	17.873000
18.685656	-0.644813	17.919000
18.834809	-0.618495	17.965000
18.877506	-0.600232	18.127000
18.919200	-0.565210	18.173000
18.962593	-0.519890	18.220000
19.005641	-0.478031	18.266000
19.160578	-0.440526	18.312000
19.202315	-0.370775	18.483000
19.245795	-0.362887	18.529000
19.288410	-0.343226	18.575000
19.330538	-0.320041	18.621000
19.373767	-0.301575	18.668000
19.416927	-0.291625	18.714000
19.458001	-0.290085	18.761000
19.499864	-0.287912	18.807000
19.541958	-0.280992	18.853000
19.585068	-0.271095	18.900000
19.628721	-0.256110	18.946000
19.671021	-0.241150	18.993000
19.713702	-0.236020	19.040000
19.856129	-0.312366	19.086000
19.896899	-0.351046	19.240000
19.940197	-0.391220	19.287000
19.981784	-0.430941	19.333000
20.024101	-0.467792	19.378000
20.170255	-0.498797	19.425000
20.212581	-0.588931	19.583000
20.254572	-0.595497	19.629000
20.297044	-0.592662	19.675000
20.340659	-0.585965	19.721000
20.382311	-0.575329	19.768000
20.423980	-0.565422	19.815000
20.465696	-0.558807	19.860000
20.508982	-0.553028	19.907000
20.551944	-0.550298	19.952000
20.593990	-0.552009	19.999000
20.637014	-0.555049	20.046000
20.680479	-0.549359	20.093000
20.722390	-0.535055	20.138000
20.863007	-0.526732	20.185000
20.905992	-0.532179	20.340000
20.948107	-0.539315	20.387000
20.990618	-0.545591	20.433000
21.034187	-0.551065	20.479000
21.178989	-0.555245	20.525000
21.220999	-0.548277	20.683000
21.264618	-0.547406	20.729000
21.305144	-0.554892	20.776000
21.346821	-0.567565	20.822000
21.389372	-0.585094	20.868000
21.432687	-0.607274	20.914000
21.475803	-0.632558	20.961000
21.518327	-0.657688	21.007000
21.560688	-0.681821	21.054000
21.603858	-0.703281	21.100000
21.646437	-0.722630	21.146000
21.687411	-0.739573	21.193000
21.730112	-0.753406	21.239000
21.871513	-0.789504	21.286000
21.913727	-0.796690	21.439000
21.956947	-0.801997	21.485000
21.998355	-0.806995	21.530000
22.038422	-0.810824	21.576000
22.188423	-0.815688	21.622000
22.228086	-0.837375	21.783000
22.270109	-0.843405	21.829000
22.313519	-0.848176	21.875000
22.355543	-0.855444	21.921000
22.398596	-0.860896	21.967000
22.440229	-0.869169	22.014000
22.483127	-0.874423	22.059000
22.526362	-0.880601	22.106000
22.567507	-0.889043	22.152000
22.609136	-0.896316	22.199000
22.652622	-0.903932	22.245000
22.695121	-0.909370	22.291000
22.736666	-0.915788	22.337000
23.391360	-0.981056	22.384000
23.431842	-1.015371	23.095000
23.473262	-1.018211	23.141000
23.515862	-1.022121	23.187000
23.558421	-1.025346	23.233000
23.600859	-1.028699	23.279000
23.643408	-1.031518	23.324000
23.686764	-1.033966	23.371000
23.728197	-1.037413	23.418000
23.878143	-1.043610	23.464000
23.920984	-1.045842	23.627000
23.962248	-1.047279	23.673000
24.003800	-1.047226	23.719000
24.046292	-1.046302	23.766000
24.204817	-1.043119	23.811000
24.247082	-1.025505	23.983000
24.288273	-1.022770	24.029000
24.330169	-1.019133	24.075000
24.372330	-1.014562	24.120000
24.412689	-1.011565	24.165000
24.454888	-1.007627	24.212000
24.498142	-1.005114	24.258000
24.541450	-1.003853	24.304000
24.583413	-1.003779	24.351000
24.626454	-1.002475	24.398000
24.670471	-1.001805	24.444000
24.712542	-1.001847	24.490000
24.752910	-1.001320	24.537000
24.895692	-1.004502	24.582000
24.937308	-1.000090	24.738000
24.979847	-0.991555	24.783000
25.023602	-0.979910	24.830000
25.065996	-0.968065	24.876000
25.212907	-0.955661	24.922000
25.255576	-0.960644	25.084000
25.299504	-0.971923	25.130000
25.339442	-0.983568	25.176000
25.381077	-0.994886	25.222000
25.424226	-1.008160	25.269000
25.467439	-1.020596	25.315000
25.509448	-1.032261	25.361000
25.552228	-1.042855	25.407000
25.595962	-1.054942	25.454000
25.637760	-1.065114	25.499000
25.679320	-1.075164	25.546000
25.721833	-1.084792	25.592000
25.764547	-1.091886	25.639000
25.905237	-1.110783	25.685000
25.948810	-1.114003	25.838000
25.991318	-1.115671	25.885000
26.033097	-1.115808	25.932000
26.075729	-1.114634	25.978000
26.222550	-1.114782	26.024000
26.263791	-1.111443	26.184000
26.305835	-1.109309	26.230000
26.349419	-1.110994	26.277000
26.391989	-1.111411	26.323000
26.434256	-1.112192	26.370000
26.477464	-1.112651	26.416000
26.520643	-1.112287	26.463000
26.563375	-1.112424	26.509000
26.605630	-1.113010	26.556000
26.648279	-1.113622	26.602000
26.689960	-1.112361	26.648000
26.730951	-1.109922	26.694000
26.773640	-1.107848	26.741000
26.917050	-1.098695	26.787000
26.958929	-1.095983	26.942000
27.002019	-1.091823	26.988000
27.044311	-1.084771	27.034000
27.086979	-1.079482	27.080000
27.229371	-1.070862	27.127000
27.272360	-1.046598	27.284000
27.315122	-1.039144	27.330000
27.357596	-1.030894	27.376000
27.400649	-1.022422	27.423000
27.443662	-1.015075	27.469000
27.485933	-1.006239	27.515000
27.527349	-0.996358	27.562000
27.569041	-0.986112	27.608000
27.612042	-0.977440	27.653000
27.653792	-0.966645	27.700000
27.696554	-0.957978	27.747000
27.740058	-0.945732	27.793000
27.782526	-0.934014	27.839000
28.432625	-0.787217	27.886000
28.475906	-0.749206	28.596000
28.518029	-0.752676	28.643000
28.560697	-0.756399	28.689000
28.604519	-0.761498	28.735000
28.647282	-0.763393	28.782000
28.688780	-0.764778	28.829000
28.730985	-0.763122	28.874000
28.773396	-0.758643	28.920000
28.920058	-0.732003	28.967000
28.961278	-0.723519	29.127000
29.004747	-0.718421	29.173000
29.047376	-0.714636	29.219000
29.089509	-0.714908	29.266000
29.247413	-0.715652	29.312000
29.291144	-0.714283	29.484000
29.332001	-0.707662	29.530000
29.372535	-0.699568	29.576000
29.415429	-0.691316	29.621000
29.458203	-0.683586	29.668000
29.499546	-0.679572	29.713000
29.542692	-0.677677	29.760000
29.586304	-0.677565	29.806000
29.628697	-0.675840	29.853000
29.670401	-0.677217	29.899000
29.712837	-0.678865	29.945000
29.755117	-0.677228	29.991000
29.796325	-0.675871	30.038000
29.939537	-0.680026	30.084000
29.983150	-0.683797	30.239000
30.025473	-0.690960	30.285000
30.064733	-0.695081	30.332000
30.107261	-0.702412	30.378000
30.252634	-0.708146	30.425000
30.293865	-0.707851	30.584000
30.336993	-0.702809	30.629000
30.379626	-0.695805	30.676000
30.421743	-0.685088	30.722000
30.464429	-0.671770	30.769000
30.507612	-0.661409	30.815000
30.550015	-0.650113	30.861000
30.590616	-0.641345	30.906000
30.633655	-0.634943	30.952000
30.674934	-0.628386	30.999000
30.717082	-0.627315	31.045000
30.759850	-0.628091	31.091000
30.802883	-0.628112	31.138000
30.945125	-0.625045	31.184000
30.986402	-0.622448	31.338000
31.027839	-0.617539	31.384000
31.070419	-0.613042	31.430000
31.112922	-0.607019	31.476000
31.260857	-0.598537	31.522000
31.303514	-0.572219	31.683000
31.345759	-0.566914	31.729000
31.388531	-0.562518	31.776000
31.431954	-0.558337	31.822000
31.474578	-0.554900	31.869000
31.515214	-0.552932	31.915000
31.557777	-0.549728	31.961000
31.600533	-0.546312	32.007000
31.642552	-0.544075	32.054000
31.684990	-0.544202	32.100000
31.727397	-0.545632	32.146000
31.770747	-0.548382	32.193000
31.813924	-0.552388	32.239000
31.953227	-0.572103	32.285000
31.995204	-0.575090	32.439000
32.036487	-0.577360	32.484000
32.078873	-0.577571	32.530000
32.121869	-0.580954	32.575000
32.269674	-0.582079	32.621000
32.312402	-0.565859	32.784000
32.355909	-0.556400	32.830000
32.398641	-0.547839	32.876000
32.440039	-0.537513	32.923000
32.481925	-0.526218	32.969000
32.524250	-0.520131	33.016000
32.566186	-0.522001	33.062000
32.608591	-0.529085	33.108000
32.651054	-0.538379	33.154000
32.694373	-0.547881	33.200000
32.736455	-0.561018	33.244000
32.776809	-0.571797	33.290000
32.819014	-0.584580	33.336000
33.472603	-0.634694	33.383000
33.516207	-0.665990	34.096000
33.558927	-0.667717	34.142000
33.600249	-0.668894	34.188000
33.641732	-0.669406	34.234000
33.684809	-0.665689	34.281000
33.727030	-0.662195	34.327000
33.768482	-0.658088	34.373000
33.811513	-0.655312	34.419000
33.960088	-0.658141	34.465000
34.001394	-0.663373	34.627000
34.043807	-0.669923	34.671000
34.086834	-0.676838	34.717000
34.128048	-0.681209	34.763000
34.286658	-0.686030	34.809000
34.329186	-0.702471	34.984000
34.371679	-0.703397	35.030000
34.414003	-0.704487	35.077000
34.457146	-0.703376	35.123000
34.500523	-0.701112	35.169000
34.543178	-0.700206	35.216000
34.585875	-0.698721	35.262000
34.628176	-0.694282	35.308000
34.670224	-0.692342	35.354000
34.712702	-0.689857	35.401000
34.753497	-0.687320	35.447000
34.796156	-0.685233	35.493000
34.839594	-0.681821	35.540000
34.981477	-0.659840	35.586000
35.023824	-0.651612	35.740000
35.066102	-0.646148	35.786000
35.106936	-0.640754	35.832000
35.149034	-0.637961	35.878000
35.295438	-0.636837	35.925000
35.337682	-0.633105	36.083000
35.380525	-0.630435	36.130000
35.423890	-0.628291	36.177000
35.466718	-0.624518	36.223000
35.509480	-0.618611	36.269000
35.550437	-0.614240	36.316000
35.592000	-0.611623	36.361000
35.634870	-0.607479	36.407000
35.676541	-0.602025	36.454000
35.719469	-0.594732	36.500000
35.762827	-0.586375	36.546000
35.805984	-0.577297	36.593000
35.847494	-0.566788	36.639000
35.990368	-0.533387	36.686000
36.031728	-0.528066	36.840000
36.072958	-0.527660	36.886000
36.115916	-0.528932	36.932000
36.158486	-0.533429	36.978000
36.303926	-0.538359	37.023000
36.346923	-0.565696	37.183000
36.388932	-0.576823	37.229000
36.429835	-0.585030	37.275000
36.470630	-0.591982	37.320000
36.513880	-0.599568	37.367000
36.557119	-0.603731	37.413000
36.598556	-0.604476	37.459000
36.640926	-0.600417	37.505000
36.684115	-0.592494	37.550000
36.726632	-0.579757	37.597000
36.767561	-0.568488	37.643000
36.810335	-0.555498	37.689000
36.853174	-0.539727	37.736000
36.994527	-0.486605	37.781000
37.037616	-0.480555	37.936000
37.079867	-0.478618	37.981000
37.120105	-0.482465	38.027000
37.162330	-0.487992	38.074000
37.313901	-0.494737	38.120000
37.354574	-0.509887	38.283000
37.396275	-0.507823	38.329000
37.439318	-0.505158	38.376000
37.481950	-0.501521	38.422000
37.523986	-0.497293	38.468000
37.566787	-0.493439	38.515000
37.610310	-0.491693	38.561000
37.652711	-0.490874	38.607000
37.694808	-0.490747	38.654000
37.737448	-0.492743	38.700000
37.779841	-0.493582	38.745000
37.820318	-0.492273	38.792000
37.862792	-0.492168	38.838000
38.517676	-0.464665	38.885000
38.559063	-0.507131	39.596000
38.601103	-0.512691	39.642000
38.642736	-0.520628	39.688000
38.684257	-0.522371	39.734000
38.726635	-0.524461	39.779000
38.769978	-0.526741	39.826000
38.812993	-0.529137	39.873000
38.855487	-0.531274	39.919000
39.003635	-0.533122	39.965000
39.046474	-0.532537	40.127000
39.089137	-0.530588	40.174000
39.131123	-0.525732	40.220000
39.172917	-0.521193	40.266000
39.330416	-0.516326	40.312000
39.372287	-0.487227	40.484000
39.414981	-0.479742	40.530000
39.457966	-0.472278	40.576000
39.500905	-0.467770	40.623000
39.542768	-0.464469	40.669000
39.584797	-0.462067	40.715000
39.627528	-0.460903	40.762000
39.668615	-0.459518	40.808000
39.710467	-0.460305	40.853000
39.754063	-0.461385	40.900000
39.796983	-0.462724	40.946000
39.839188	-0.465818	40.992000
39.881697	-0.469380	41.039000
40.023564	-0.486793	41.086000
40.064467	-0.491850	41.240000
40.107756	-0.497122	41.287000
40.150960	-0.501741	41.332000
40.193557	-0.504618	41.379000
40.338459	-0.504365	41.425000
40.382093	-0.509633	41.584000
40.424740	-0.510841	41.630000
40.465774	-0.509918	41.676000
40.508974	-0.511010	41.723000
40.551199	-0.510050	41.768000
40.592566	-0.508414	41.815000
40.634679	-0.506614	41.862000
40.677979	-0.504988	41.907000
40.720592	-0.500918	41.954000
40.762317	-0.494917	41.999000
40.805229	-0.487970	42.046000
40.848137	-0.481446	42.092000
40.888952	-0.473908	42.138000
41.031488	-0.442143	42.184000
41.074165	-0.432738	42.339000
41.115433	-0.421253	42.385000
41.157623	-0.408291	42.430000
41.200089	-0.394251	42.477000
41.348507	-0.378774	42.522000
41.389387	-0.334080	42.684000
41.432164	-0.331188	42.730000
41.474708	-0.333389	42.776000
41.516317	-0.340403	42.823000
41.559187	-0.346370	42.870000
41.602618	-0.355503	42.915000
41.645492	-0.366840	42.962000
41.687213	-0.375752	43.008000
41.730098	-0.383851	43.054000
41.773237	-0.391013	43.101000
41.813955	-0.395948	43.147000
41.854662	-0.399255	43.192000
41.897974	-0.402052	43.239000
42.039930	-0.401466	43.284000
42.083118	-0.399044	43.440000
42.125381	-0.395875	43.486000
42.167667	-0.388622	43.531000
42.207517	-0.383053	43.577000
42.355497	-0.378292	43.623000
42.398094	-0.365983	43.784000
42.440061	-0.359446	43.830000
42.482800	-0.354938	43.877000
42.525962	-0.350368	43.922000
42.568125	-0.345270	43.969000
42.610837	-0.340625	44.015000
42.653415	-0.334985	44.061000
42.695836	-0.328430	44.108000
42.737003	-0.323941	44.154000
42.778609	-0.318666	44.200000
42.821998	-0.314557	44.246000
42.864507	-0.312942	44.292000
42.906562	-0.313026	44.338000
43.559314	-0.338593	44.385000
43.600359	-0.312261	45.096000
43.642710	-0.304700	45.142000
43.686414	-0.297348	45.189000
43.728868	-0.290149	45.234000
43.771020	-0.282766	45.281000
43.813348	-0.276525	45.326000
43.857067	-0.271481	45.373000
43.898838	-0.263459	45.420000
44.045869	-0.234747	45.466000
44.087786	-0.224586	45.627000
44.130360	-0.217941	45.673000
44.172039	-0.209147	45.720000
44.214570	-0.199149	45.766000
44.373722	-0.191237	45.813000
44.415919	-0.181777	45.984000
44.456780	-0.185678	46.029000
44.499024	-0.189722	46.075000
44.541521	-0.193538	46.121000
44.582520	-0.195397	46.168000
44.625236	-0.199898	46.214000
44.668770	-0.204048	46.259000
44.711306	-0.209010	46.306000
44.753603	-0.214927	46.353000
44.796193	-0.221714	46.399000
44.839378	-0.228128	46.445000
44.880688	-0.233823	46.491000
44.922601	-0.239888	46.538000
45.065536	-0.252879	46.584000
45.107815	-0.257408	46.737000
45.149417	-0.261269	46.783000
45.191795	-0.265536	46.829000
45.233862	-0.270128	46.874000
45.382825	-0.273830	46.922000
45.425233	-0.291865	47.084000
45.467857	-0.297391	47.130000
45.508876	-0.308255	47.177000
45.551461	-0.317734	47.223000
45.594980	-0.319677	47.270000
45.637693	-0.311235	47.316000
45.680121	-0.296280	47.362000
45.723171	-0.282639	47.409000
45.766732	-0.271545	47.455000
45.809037	-0.261701	47.502000
45.851489	-0.256793	47.548000
45.892806	-0.259622	47.595000
45.935784	-0.259904	47.641000
46.077509	-0.234382	47.688000
46.120805	-0.221568	47.843000
46.163713	-0.214336	47.889000
46.206299	-0.211300	47.935000
46.248520	-0.208233	47.982000
46.390875	-0.203219	48.028000
46.432120	-0.164070	48.184000
46.474997	-0.151380	48.230000
46.518501	-0.139619	48.276000
46.561467	-0.128646	48.323000
46.603895	-0.118675	48.370000
46.646707	-0.111359	48.416000
46.690026	-0.104878	48.463000
46.732404	-0.100934	48.509000
46.773834	-0.096791	48.555000
46.814940	-0.093281	48.602000
46.858113	-0.090394	48.648000
46.901141	-0.089026	48.694000
46.942835	-0.088308	48.740000
47.086016	-0.078454	48.786000
47.128337	-0.075562	48.941000
47.169040	-0.072780	48.987000
47.211383	-0.070905	49.033000
47.254345	-0.069444	49.080000
47.398725	-0.066535	49.126000
47.441745	-0.061130	49.283000
47.484980	-0.056854	49.330000
47.527312	-0.051096	49.377000
47.569310	-0.046715	49.423000
47.612298	-0.043368	49.469000
47.653197	-0.038691	49.515000
47.694888	-0.035697	49.561000
47.737454	-0.031355	49.608000
47.781273	-0.025545	49.654000
47.823628	-0.021649	49.700000
47.865634	-0.017694	49.746000
47.907850	-0.013698	49.792000
47.951385	-0.010859	49.838000
48.602746	-0.023439	49.885000
48.645351	-0.045559	50.596000
48.687406	-0.045327	50.642000
48.729208	-0.044423	50.688000
48.772201	-0.044022	50.734000
48.815605	-0.044799	50.781000
48.855117	-0.048973	50.827000
48.897356	-0.050790	50.873000
48.941106	-0.053546	50.919000
49.088836	-0.065454	50.966000
49.131153	-0.064140	51.127000
49.174652	-0.062307	51.174000
49.217680	-0.059833	51.220000
49.259144	-0.054173	51.266000
49.417699	-0.049687	51.312000
49.459540	-0.024103	51.484000
49.499240	-0.016319	51.529000
49.541779	-0.007972	51.575000
49.583866	0.002075	51.621000
49.627254	0.011113	51.666000
49.670278	0.020896	51.713000
49.712010	0.029328	51.758000
49.754872	0.035426	51.805000
49.797470	0.041467	51.852000
49.838891	0.045570	51.898000
49.880854	0.049231	51.945000
49.923689	0.053142	51.991000
49.966352	0.055707	52.037000
50.109076	0.066028	52.083000
50.152630	0.068211	52.239000
50.194070	0.069481	52.284000
50.234739	0.072175	52.331000
50.277359	0.072698	52.377000
50.424643	0.075762	52.422000
50.466891	0.088838	52.584000
50.509841	0.093577	52.631000
50.553268	0.097174	52.677000
50.596476	0.100066	52.723000
50.638478	0.105569	52.770000
50.680794	0.111609	52.816000
50.723691	0.116919	52.862000
50.765719	0.122516	52.908000
50.807033	0.126839	52.955000
50.849773	0.128945	53.001000
50.893023	0.131689	53.048000
50.934967	0.135782	53.094000
50.977744	0.138247	53.141000
51.121567	0.148836	53.187000
51.163369	0.152884	53.342000
51.204514	0.156845	53.388000
51.247172	0.164018	53.434000
51.289105	0.167541	53.481000
51.432924	0.173906	53.527000
51.476328	0.181153	53.684000
51.519881	0.182066	53.730000
51.562037	0.179979	53.777000
51.604668	0.179496	53.823000
51.648203	0.183473	53.870000
51.689090	0.184787	53.916000
51.729574	0.192478	53.962000
51.773070	0.221669	54.009000
51.816194	0.250641	54.055000
51.858480	0.275292	54.101000
51.901542	0.304286	54.148000
51.945460	0.336342	54.195000
51.987681	0.372182	54.240000
52.127754	0.438149	54.286000
52.170835	0.440282	54.442000
52.212276	0.439344	54.487000
52.255084	0.437165	54.534000
52.299064	0.432710	54.581000
52.443490	0.427559	54.628000
52.485454	0.403064	54.784000
52.527797	0.405880	54.830000
52.569549	0.411997	54.875000
52.609334	0.420608	54.921000
52.651581	0.430330	54.967000
52.694859	0.436590	55.012000
52.737221	0.440646	55.058000
52.779050	0.446216	55.104000
52.822050	0.456619	55.151000
52.865585	0.469199	55.197000
52.906146	0.482697	55.244000
52.947498	0.496979	55.290000
52.991252	0.513072	55.336000
53.646136	0.565233	55.383000
53.688637	0.549929	56.095000
53.731971	0.537434	56.143000
53.773585	0.526157	56.189000
53.814400	0.512981	56.236000
53.857085	0.496778	56.282000
53.899805	0.481543	56.328000
53.942248	0.470029	56.374000
53.985134	0.460666	56.421000
54.132399	0.449204	56.467000
54.174346	0.448145	56.627000
54.217351	0.445659	56.673000
54.259990	0.443984	56.720000
54.303244	0.443374	56.765000
54.458461	0.443942	56.813000
54.500782	0.433399	56.984000
54.544336	0.429145	57.031000
54.587601	0.425231	57.077000
54.629176	0.420238	57.123000
54.672311	0.418006	57.170000
54.715342	0.418428	57.216000
54.757624	0.421434	57.262000
54.797767	0.425104	57.308000
54.840621	0.429501	57.353000
54.883318	0.435196	57.400000
54.925973	0.438824	57.447000
54.968443	0.439160	57.494000
55.012031	0.438814	57.540000
55.153457	0.442209	57.587000
55.194717	0.445732	57.741000
55.236945	0.450796	57.787000
55.279727	0.452182	57.832000
55.321540	0.450997	57.879000
55.468114	0.450786	57.925000
55.511729	0.444431	58.084000
55.552993	0.439955	58.130000
55.595567	0.433055	58.177000
55.639255	0.425388	58.223000
55.680169	0.416946	58.269000
55.720077	0.412143	58.315000
55.764123	0.409082	58.361000
55.807023	0.404216	58.407000
55.848921	0.401282	58.454000
55.891103	0.400788	58.500000
55.934887	0.402657	58.546000
55.977035	0.404522	58.592000
56.017339	0.406926	58.637000
56.159298	0.462761	58.683000
56.201784	0.482159	58.838000
56.244043	0.501413	58.884000
56.286878	0.516160	58.931000
56.330551	0.530115	58.977000
56.477213	0.543790	59.023000
56.519449	0.568836	59.184000
56.562484	0.562434	59.230000
56.602791	0.551010	59.276000
56.644270	0.535432	59.322000
56.687920	0.520509	59.368000
56.730624	0.504831	59.414000
56.772346	0.486453	59.461000
56.814835	0.469431	59.506000
56.857133	0.453796	59.552000
56.898112	0.440185	59.597000
56.938812	0.425485	59.643000
56.981643	0.416266	59.689000
57.024378	0.407564	59.735000
57.166568	0.394362	59.781000
57.209538	0.393006	59.935000
57.251905	0.391153	59.982000
57.293780	0.389892	60.029000
57.334510	0.388905	60.075000
57.486381	0.387717	60.121000
57.527030	0.381156	60.284000
57.568732	0.379330	60.330000
57.612412	0.377900	60.376000
57.654345	0.375682	60.423000
57.696719	0.371739	60.469000
57.739401	0.370340	60.515000
57.782639	0.367400	60.561000
57.824937	0.363890	60.607000
57.866504	0.362417	60.654000
57.908226	0.359948	60.700000
57.950584	0.358875	60.746000
57.992820	0.356669	60.793000
58.035786	0.356163	60.839000
58.689180	0.349606	60.885000
58.729445	0.297968	61.597000
58.772007	0.294679	61.643000
58.815373	0.292811	61.689000
58.857862	0.292073	61.736000
58.900479	0.293893	61.782000
58.943414	0.295196	61.829000
58.987363	0.301440	61.875000
59.030314	0.310350	61.922000
59.175585	0.340923	61.969000
59.219200	0.344613	62.128000
59.261555	0.346275	62.174000
59.302327	0.345067	62.221000
59.345512	0.343308	62.267000
59.502969	0.338004	62.314000
59.544341	0.326369	62.484000
59.586861	0.324285	62.530000
59.630053	0.323720	62.576000
59.672017	0.320104	62.623000
59.712009	0.319366	62.668000
59.755390	0.317243	62.715000
59.798678	0.315269	62.761000
59.840442	0.315153	62.808000
59.883558	0.317412	62.854000
59.926082	0.319387	62.901000
59.970304	0.321815	62.947000
60.012578	0.326317	62.994000
60.054822	0.329416	63.040000
60.193009	0.344143	63.086000
60.234665	0.348778	63.241000
60.277442	0.351507	63.288000
60.321061	0.354749	63.334000
60.363228	0.355112	63.380000
60.508207	0.354485	63.426000
60.551930	0.358655	63.584000
60.593720	0.360903	63.631000
60.635057	0.362164	63.678000
60.678073	0.363511	63.724000
60.720493	0.362744	63.770000
60.762134	0.361008	63.817000
60.804462	0.358427	63.863000
60.847386	0.357593	63.909000
60.891224	0.355313	63.955000
60.934020	0.353180	64.001000
60.975907	0.348060	64.048000
61.018903	0.343742	64.095000
61.061020	0.341505	64.141000
61.201877	0.331105	64.187000
61.244374	0.327859	64.341000
61.286645	0.325938	64.387000
61.328193	0.323636	64.432000
61.370172	0.321378	64.478000
61.516599	0.318527	64.524000
61.557387	0.320502	64.685000
61.600103	0.322322	64.730000
61.642712	0.326661	64.776000
61.685005	0.330203	64.822000
61.727606	0.333587	64.869000
61.769558	0.336753	64.914000
61.812366	0.340670	64.960000
61.853542	0.344455	65.006000
61.894817	0.347569	65.051000
61.937461	0.350224	65.098000
61.979985	0.351539	65.144000
62.022739	0.353328	65.191000
62.064895	0.355059	65.237000
62.207284	0.352245	65.282000
62.248295	0.351316	65.437000
62.290304	0.350382	65.483000
62.333616	0.350372	65.530000
62.375606	0.351205	65.576000
62.523966	0.351939	65.623000
62.567627	0.352652	65.784000
62.609360	0.352276	65.831000
62.651738	0.353507	65.877000
62.694880	0.354879	65.923000
62.738365	0.356911	65.970000
62.780601	0.358696	66.015000
62.820701	0.360242	66.062000
62.862933	0.360892	66.107000
62.905338	0.362808	66.153000
62.946890	0.362998	66.198000
62.989107	0.363594	66.245000
63.032753	0.365706	66.291000
63.075307	0.366318	66.337000
63.728071	0.366498	66.383000
63.770364	0.396732	67.097000
63.812985	0.407919	67.143000
63.855674	0.418920	67.190000
63.899677	0.430467	67.236000
63.941771	0.443532	67.282000
63.982981	0.454938	67.328000
64.023834	0.465501	67.373000
64.066001	0.477694	67.419000
64.215106	0.544259	67.464000
64.257507	0.567767	67.628000
64.299931	0.590470	67.674000
64.341591	0.606921	67.720000
64.384822	0.618227	67.767000
64.543420	0.625691	67.813000
64.586055	0.651281	67.985000
64.628130	0.662539	68.031000
64.668991	0.673208	68.077000
64.711480	0.683464	68.123000
64.753977	0.693123	68.170000
64.796152	0.701511	68.215000
64.839003	0.710727	68.262000
64.882452	0.716696	68.308000
64.924919	0.721626	68.354000
64.966678	0.725179	68.400000
65.008868	0.729718	68.446000
65.050874	0.733186	68.493000
65.092226	0.737536	68.539000
65.235592	0.742951	68.585000
65.278127	0.741072	68.740000
65.320340	0.736090	68.786000
65.363552	0.731714	68.833000
65.407133	0.728467	68.879000
65.551082	0.723358	68.926000
65.592404	0.716254	69.085000
65.635285	0.718924	69.131000
65.678174	0.721078	69.177000
65.720364	0.722667	69.224000
65.763030	0.725622	69.270000
65.806595	0.727048	69.316000
65.849946	0.727860	69.363000
65.892012	0.727343	69.410000
65.934118	0.726229	69.456000
65.977598	0.724767	69.503000
66.019151	0.724957	69.549000
66.060488	0.725242	69.594000
66.103407	0.725945	69.641000
66.244906	0.735603	69.688000
66.288125	0.741050	69.842000
66.330615	0.744819	69.888000
66.372520	0.749311	69.934000
66.412720	0.753893	69.980000
66.559052	0.757393	70.026000
66.602033	0.765759	70.185000
66.643769	0.767817	70.230000
66.685306	0.770193	70.276000
66.728725	0.770874	70.322000
66.771699	0.772642	70.369000
66.812106	0.773271	70.414000
66.854135	0.775440	70.460000
66.896886	0.775091	70.506000
66.938484	0.775814	70.553000
66.981104	0.777446	70.599000
67.024761	0.779251	70.645000
67.067343	0.781019	70.691000
67.108434	0.781166	70.738000
67.251270	0.789121	70.784000
67.292084	0.791423	70.939000
67.334658	0.793212	70.985000
67.377993	0.797340	71.031000
67.420359	0.800386	71.077000
67.567221	0.803215	71.122000
67.610802	0.815836	71.285000
67.653944	0.820253	71.331000
67.696272	0.822534	71.377000
67.737210	0.826748	71.423000
67.780214	0.830155	71.470000
67.822573	0.836041	71.516000
67.864018	0.841398	71.562000
67.907245	0.846737	71.609000
67.950871	0.852524	71.655000
67.993246	0.860818	71.702000
68.034682	0.868650	71.747000
68.076911	0.874343	71.793000
68.119193	0.881610	71.839000
68.770781	0.896030	71.884000
68.814676	0.917136	72.597000
68.856851	0.922192	72.643000
68.899909	0.930761	72.690000
68.941753	0.936063	72.736000
68.984542	0.942104	72.782000
69.024189	0.947822	72.828000
69.066578	0.951583	72.874000
69.110935	0.956555	72.920000
69.256705	0.968699	72.966000
69.299057	0.971499	73.127000
69.341631	0.973333	73.173000
69.385165	0.977257	73.220000
69.428408	0.978825	73.265000
69.583713	0.981095	73.312000
69.626564	0.998805	73.485000
69.669999	1.004563	73.531000
69.712104	1.008012	73.578000
69.754962	1.011292	73.624000
69.797206	1.013171	73.670000
69.840379	1.016021	73.716000
69.883230	1.020592	73.762000
69.925059	1.025542	73.809000
69.967072	1.032388	73.854000
70.008547	1.040851	73.901000
70.049861	1.052067	73.947000
70.093518	1.063871	73.993000
70.136576	1.078354	74.039000
70.277591	1.105681	74.086000
70.319696	1.111910	74.239000
70.363085	1.120276	74.286000
70.404345	1.129820	74.333000
70.446189	1.142789	74.379000
70.593412	1.160006	74.425000
70.635655	1.226420	74.585000
70.678483	1.245654	74.631000
70.722086	1.258003	74.678000
70.764937	1.266820	74.724000
70.806021	1.270050	74.770000
70.848310	1.273858	74.816000
70.890708	1.273541	74.862000
70.931522	1.274831	74.908000
70.973581	1.277853	74.954000
71.017723	1.281556	75.001000
71.060927	1.288560	75.047000
71.102118	1.300010	75.093000
71.144761	1.310215	75.140000
71.286552	1.348538	75.186000
71.327174	1.359801	75.340000
71.370217	1.367027	75.386000
71.414151	1.370603	75.433000
71.456978	1.372069	75.479000
71.601881	1.374628	75.525000
71.645722	1.380050	75.684000
71.688850	1.387276	75.731000
71.729656	1.397162	75.777000
71.771524	1.406927	75.823000
71.813422	1.417728	75.868000
71.854490	1.431376	75.915000
71.897686	1.447350	75.961000
71.941551	1.475481	76.007000
71.983971	1.507904	76.054000
72.025231	1.528548	76.099000
72.067744	1.535283	76.145000
72.109334	1.549133	76.191000
72.151132	1.564531	76.237000
72.292362	1.608299	76.283000
72.336281	1.623558	76.438000
72.378770	1.641853	76.484000
72.420622	1.662740	76.530000
72.463350	1.685527	76.576000
72.611387	1.710218	76.622000
72.653531	1.780581	76.785000
72.694821	1.788023	76.830000
72.737319	1.789461	76.877000
72.778617	1.792116	76.923000
72.821491	1.796259	76.968000
72.864572	1.799341	77.014000
72.905955	1.809689	77.060000
72.947899	1.821865	77.105000
72.989682	1.830128	77.151000
73.029974	1.842539	77.197000
73.073393	1.861207	77.243000
73.115790	1.883237	77.290000
73.158549	1.909667	77.336000
73.495499	2.013488	77.382000
73.833441	2.019458	77.749000
73.875723	2.075325	78.118000
73.918143	2.082276	78.164000
73.961024	2.090527	78.210000
74.004305	2.104039	78.257000
74.045442	2.122619	78.303000
74.086710	2.146486	78.349000
74.129930	2.169448	78.396000
74.172335	2.194363	78.441000
74.313810	2.286579	78.487000
74.357037	2.308514	78.642000
74.398628	2.332001	78.688000
74.439266	2.359470	78.734000
74.482539	2.385736	78.780000
74.626834	2.419000	78.826000
74.669278	2.538941	78.985000
74.712766	2.578609	79.030000
74.755655	2.616380	79.077000
74.797422	2.652843	79.123000
74.840196	2.688776	79.170000
74.884030	2.720789	79.216000
74.924760	2.751031	79.263000
74.965321	2.781518	79.308000
75.008740	2.810807	79.355000
75.052728	2.837791	79.401000
75.094933	2.863529	79.446000
75.138099	2.888722	79.494000
75.180212	2.911767	79.540000
75.321910	3.002513	79.586000
75.362702	3.030156	79.741000
75.407005	3.065001	79.787000
75.449901	3.104093	79.834000
75.491069	3.140288	79.879000
75.637501	3.177168	79.926000
75.680428	3.296572	80.084000
75.721865	3.332755	80.129000
75.764639	3.368670	80.176000
75.807566	3.401776	80.223000
75.848342	3.433735	80.269000
75.890801	3.465505	80.316000
75.934128	3.494154	80.362000
75.977255	3.521873	80.409000
76.019676	3.551094	80.455000
76.061704	3.581620	80.501000
76.104078	3.610771	80.547000
76.146468	3.640326	80.593000
76.188097	3.669040	80.639000
76.330326	3.770358	80.686000
76.372392	3.797505	80.840000
76.414782	3.826040	80.886000
76.457663	3.857613	80.932000
76.500914	3.889639	80.979000
76.646315	3.921312	81.025000
76.689412	4.021432	81.185000
76.731801	4.052888	81.231000
76.772593	4.089093	81.278000
76.814952	4.129516	81.324000
76.857610	4.170545	81.370000
76.901444	4.215114	81.416000
76.944118	4.262441	81.462000
76.986216	4.313910	81.509000
77.028690	4.368104	81.556000
77.072271	4.418197	81.602000
77.114753	4.470613	81.649000
77.156128	4.524760	81.695000
77.197795	4.580389	81.742000
77.340170	4.740890	81.787000
77.383305	4.792994	81.943000
77.426785	4.847784	81.989000
77.468983	4.900714	82.035000
77.511035	4.954330	82.082000
77.654070	5.007732	82.128000
77.696129	5.184370	82.285000
77.738303	5.239276	82.331000
77.781400	5.291767	82.378000
77.824904	5.343245	82.424000
77.867939	5.394774	82.470000
77.909437	5.447395	82.517000
77.952203	5.502068	82.562000
77.995269	5.557408	82.609000
78.036514	5.618696	82.655000
78.078081	5.682924	82.702000
78.121485	5.750453	82.748000
78.164290	5.818448	82.795000
78.206310	5.886661	82.841000
78.857914	6.442309	82.888000
78.898959	7.166455	83.597000
78.941640	7.253264	83.643000
78.985444	7.340419	83.690000
79.028210	7.425431	83.736000
79.069747	7.510261	83.782000
79.113127	7.591729	83.828000
79.156631	7.674525	83.875000
79.198068	7.754509	83.921000
79.345636	8.025001	83.968000
79.388356	8.100639	84.128000
79.428848	8.177620	84.175000
79.471192	8.255549	84.221000
79.514403	8.339857	84.267000
79.672460	8.428068	84.313000
79.714888	8.742621	84.484000
79.756763	8.838403	84.531000
79.799490	8.954174	84.577000
79.841288	9.088941	84.623000
79.882733	9.230444	84.670000
79.925368	9.371868	84.715000
79.968465	9.509466	84.761000
80.010924	9.638297	84.808000
80.053352	9.762032	84.854000
80.096418	9.885992	84.901000
80.139353	10.007631	84.947000
80.180106	10.122321	84.993000
80.220959	10.233610	85.038000
80.364278	10.597136	85.085000
80.406514	10.709069	85.240000
80.449626	10.821575	85.286000
80.492377	10.939732	85.332000
80.534444	11.058788	85.378000
80.680568	11.183381	85.425000
80.722565	11.619166	85.585000
80.764993	11.745930	85.630000
80.805885	11.876259	85.677000
80.848405	12.005196	85.723000
80.891417	12.138020	85.769000
80.934306	12.276023	85.814000
80.976542	12.418708	85.861000
81.019032	12.567494	85.908000
81.061974	12.718558	85.954000
81.103388	12.867694	86.000000
81.145194	13.014968	86.047000
81.188052	13.158438	86.093000
81.231010	13.303709	86.140000
81.372670	13.815296	86.185000
81.416212	13.982408	86.340000
81.458871	14.154510	86.387000
81.500500	14.324996	86.433000
81.541714	14.497250	86.478000
81.688868	14.668784	86.526000
81.730189	15.240595	86.685000
81.772156	15.401177	86.730000
81.815990	15.558778	86.777000
81.858226	15.716771	86.823000
81.900601	15.876812	86.869000
81.943674	16.037647	86.916000
81.986978	16.195831	86.962000
82.029076	16.356418	87.009000
82.069276	16.516152	87.055000
82.112725	16.675545	87.101000
82.155807	16.838636	87.148000
82.197651	16.998302	87.194000
82.240448	17.159594	87.241000
82.383683	17.688884	87.287000
82.424797	17.859169	87.441000
82.466141	18.036642	87.488000
82.509184	18.215974	87.534000
82.551904	18.406649	87.580000
82.696476	18.606322	87.627000
82.739995	19.294246	87.785000
82.782731	19.493011	87.831000
82.824505	19.684217	87.877000
82.867371	19.871568	87.924000
82.911298	20.055961	87.970000
82.952942	20.241175	88.017000
82.994049	20.428836	88.062000
83.037360	20.614334	88.110000
83.079658	20.805183	88.156000
83.121387	21.001540	88.202000
83.164437	21.204019	88.248000
83.207749	21.408310	88.294000
83.250753	21.618755	88.341000
83.900896	23.383395	88.387000
83.943194	25.586865	89.097000
83.985068	25.845858	89.143000
84.028557	26.105061	89.190000
84.071169	26.358160	89.236000
84.113159	26.607904	89.282000
84.154312	26.856843	89.328000
84.197055	27.110248	89.374000
84.239306	27.371736	89.421000
84.386713	28.318774	89.468000
84.429088	28.607152	89.628000
84.472591	28.898944	89.675000
84.515112	29.193242	89.721000
84.557271	29.486164	89.767000
84.714943	29.773750	89.812000
84.758055	30.839335	89.985000
84.798685	31.124704	90.031000
84.841036	31.412802	90.077000
84.884248	31.716231	90.124000
84.926576	32.011775	90.170000
84.968620	32.298138	90.215000
85.011010	32.585111	90.262000
85.054029	32.868137	90.308000
85.095574	33.146490	90.353000
85.136527	33.415830	90.400000
85.179462	33.679491	90.446000
85.222259	33.947420	90.493000
85.265416	34.218350	90.539000
85.407215	35.173173	90.585000
85.450757	35.453627	90.740000
85.492755	35.732006	90.787000
85.533677	36.010536	90.833000
85.576258	36.290849	90.879000
85.722060	36.578132	90.926000
85.764603	37.594282	91.085000
85.808053	37.907054	91.131000
85.850589	38.234738	91.178000
85.892525	38.570618	91.224000
85.934937	38.926122	91.270000
85.978687	39.283752	91.316000
86.021146	39.652267	91.362000
86.062337	40.034477	91.409000
86.104442	40.422168	91.455000
86.147692	40.832557	91.502000
86.189583	41.244883	91.548000
86.232134	41.656274	91.594000
86.275084	42.067990	91.640000
86.418911	43.427599	91.688000
86.459940	43.828208	91.842000
86.502914	44.227948	91.888000
86.545411	44.628616	91.935000
86.586180	45.026722	91.982000
86.732096	45.420003	92.028000
86.774532	46.795921	92.185000
86.816606	47.198712	92.231000
86.859495	47.603641	92.278000
86.903306	48.006868	92.324000
86.945765	48.405679	92.371000
