Sample	2mm tape 2
date	07/01/2025
	
Temperature (K)	77.00
Angle (deg.)	0.000000
field / T	0.040000
	
		
Approx. trace time (s)	60.0	
		
Current / A	V1  -sample/ uV	time/s
0.002352	-1.273124	0.000000
0.002024	-1.286042	0.126000
0.002012	-1.299150	0.172000
0.002137	-1.319083	0.219000
0.001856	-1.341103	0.265000
0.001946	-1.366956	0.311000
0.001732	-1.469086	0.482000
0.001576	-1.496391	0.528000
0.001690	-1.518450	0.575000
0.001540	-1.538671	0.620000
0.001666	-1.553762	0.667000
0.002149	-1.567612	0.713000
0.020398	-1.571711	0.759000
0.051557	-1.569018	0.805000
0.082569	-1.565347	0.852000
0.114690	-1.563909	0.898000
0.145306	-1.561227	0.945000
0.176529	-1.556276	0.991000
0.207265	-1.551444	1.037000
0.309371	-1.530014	1.084000
0.340384	-1.515961	1.238000
0.371321	-1.507775	1.285000
0.402660	-1.505849	1.331000
0.433860	-1.508668	1.378000
0.539337	-1.516275	1.424000
0.570214	-1.559623	1.582000
0.601591	-1.579419	1.629000
0.632621	-1.601422	1.675000
0.663160	-1.624583	1.721000
0.693462	-1.646133	1.768000
0.724030	-1.662973	1.814000
0.755078	-1.682885	1.860000
0.786526	-1.702244	1.907000
0.817649	-1.721340	1.952000
0.848715	-1.739061	1.999000
0.880290	-1.750552	2.046000
0.910775	-1.755779	2.092000
0.941927	-1.754692	2.139000
1.414609	-1.663979	2.185000
1.445653	-1.590242	2.895000
1.476826	-1.596473	2.941000
1.507762	-1.601360	2.988000
1.538858	-1.606852	3.034000
1.568888	-1.611413	3.081000
1.599877	-1.606412	3.127000
1.631047	-1.593839	3.174000
1.662147	-1.585829	3.219000
1.770055	-1.573306	3.267000
1.800811	-1.569482	3.427000
1.832028	-1.563775	3.473000
1.862139	-1.543246	3.519000
1.893561	-1.526952	3.565000
2.006188	-1.521626	3.612000
2.036568	-1.506752	3.781000
2.068036	-1.511210	3.828000
2.098666	-1.513856	3.874000
2.130282	-1.512462	3.921000
2.161036	-1.504117	3.968000
2.192322	-1.492775	4.014000
2.222846	-1.478332	4.060000
2.253815	-1.464334	4.106000
2.284402	-1.458417	4.151000
2.314358	-1.459372	4.198000
2.345648	-1.457135	4.245000
2.376707	-1.451428	4.291000
2.408276	-1.446044	4.337000
2.511726	-1.419054	4.384000
2.542778	-1.404048	4.539000
2.572347	-1.389616	4.585000
2.603427	-1.377761	4.631000
2.634338	-1.368292	4.677000
2.739833	-1.361630	4.723000
2.771092	-1.298091	4.882000
2.802255	-1.286012	4.928000
2.833209	-1.280696	4.975000
2.865009	-1.279792	5.021000
2.895013	-1.277194	5.067000
2.924479	-1.280872	5.112000
2.954755	-1.289107	5.158000
2.985996	-1.297985	5.204000
3.016158	-1.314638	5.250000
3.046339	-1.336363	5.295000
3.077883	-1.359409	5.340000
3.108385	-1.384370	5.387000
3.138526	-1.407683	5.433000
3.241736	-1.463684	5.479000
3.272866	-1.479573	5.634000
3.304005	-1.492701	5.681000
3.335388	-1.504946	5.727000
3.366689	-1.516015	5.774000
3.474196	-1.522961	5.821000
3.504979	-1.447791	5.982000
3.535768	-1.420484	6.028000
3.566662	-1.392497	6.075000
3.596985	-1.366285	6.121000
3.627657	-1.342584	6.167000
3.658055	-1.326278	6.213000
3.689476	-1.317577	6.260000
3.720797	-1.308336	6.306000
3.752439	-1.294957	6.353000
3.783002	-1.281575	6.399000
3.814442	-1.276079	6.445000
3.845301	-1.268478	6.492000
3.876095	-1.251111	6.537000
3.978093	-1.216990	6.584000
4.008359	-1.185269	6.738000
4.040070	-1.166822	6.784000
4.070951	-1.157710	6.830000
4.102377	-1.145842	6.877000
4.207850	-1.133480	6.923000
4.237155	-1.121810	7.082000
4.267849	-0.646177	7.127000
4.298183	-1.146609	7.173000
4.329310	-1.146029	7.218000
4.359740	-1.109952	7.265000
4.391594	-1.145966	7.311000
4.422588	-1.163230	7.357000
4.453337	-1.188362	7.403000
4.483170	-1.215700	7.450000
4.514489	-1.242417	7.496000
4.545004	-1.269189	7.543000
4.576387	-1.290844	7.589000
4.606450	-1.310643	7.635000
5.083331	-1.448379	7.680000
5.114397	-1.552166	8.395000
5.144189	-1.570861	8.441000
5.175403	-1.586727	8.487000
5.205570	-1.603210	8.533000
5.237034	-1.619120	8.580000
5.268325	-1.633456	8.626000
5.298702	-1.646278	8.673000
5.330622	-1.658146	8.719000
5.437572	-1.695968	8.765000
5.469124	-1.707631	8.926000
5.500195	-1.719103	8.973000
5.530785	-1.731592	9.019000
5.560851	-1.745224	9.066000
5.673872	-1.758751	9.112000
5.705536	-1.780555	9.282000
5.736523	-1.776479	9.329000
5.768278	-1.769888	9.375000
5.798823	-1.762308	9.422000
5.830189	-1.755850	9.468000
5.859793	-1.756423	9.514000
5.889470	-1.763004	9.559000
5.921217	-1.772842	9.606000
5.952118	-1.787796	9.653000
5.983720	-1.802460	9.699000
6.014214	-1.813275	9.746000
6.046104	-1.817456	9.793000
6.077073	-1.822692	9.839000
6.179724	-1.837055	9.885000
6.210069	-1.840138	10.040000
6.241523	-1.840829	10.087000
6.272848	-1.839484	10.133000
6.303656	-1.838433	10.179000
6.408551	-1.834346	10.226000
6.439792	-1.838120	10.382000
6.471322	-1.841272	10.429000
6.501137	-1.843162	10.476000
6.532935	-1.847712	10.522000
6.563384	-1.838141	10.569000
6.594139	-1.827200	10.615000
6.624143	-1.818004	10.662000
6.655997	-1.811454	10.708000
6.687733	-1.801732	10.755000
6.718723	-1.779061	10.801000
6.750205	-1.746082	10.848000
6.780772	-1.709413	10.894000
6.811729	-1.679959	10.939000
6.913199	-1.559233	10.987000
6.944898	-1.540007	11.141000
6.974971	-1.536588	11.187000
7.006238	-1.537221	11.233000
7.037743	-1.539817	11.279000
7.142125	-1.539595	11.325000
7.172930	-1.511430	11.483000
7.202451	-1.504753	11.529000
7.233964	-1.499718	11.575000
7.264873	-1.490670	11.622000
7.296186	-1.484135	11.668000
7.326259	-1.478931	11.714000
7.357937	-1.477500	11.760000
7.388915	-1.474736	11.806000
7.419946	-1.472897	11.852000
7.449741	-1.466875	11.899000
7.481412	-1.461808	11.946000
7.512261	-1.458825	11.992000
7.542797	-1.460863	12.038000
7.647100	-1.454989	12.085000
7.677852	-1.452005	12.240000
7.709408	-1.449514	12.287000
7.740572	-1.450418	12.333000
7.771243	-1.456847	12.379000
7.874930	-1.465446	12.426000
7.905363	-1.502789	12.582000
7.936963	-1.510137	12.629000
7.968489	-1.517786	12.675000
7.999045	-1.522358	12.721000
8.029564	-1.526458	12.768000
8.061202	-1.527056	12.814000
8.091990	-1.528306	12.860000
8.121952	-1.526067	12.906000
8.152320	-1.520478	12.952000
8.183604	-1.512354	12.999000
8.214724	-1.503418	13.045000
8.245817	-1.492322	13.091000
8.276493	-1.482610	13.138000
8.749542	-1.413240	13.184000
8.780666	-1.383548	13.895000
8.812447	-1.377066	13.941000
8.843051	-1.368942	13.988000
8.874037	-1.359585	14.034000
8.905690	-1.350969	14.081000
8.936889	-1.349940	14.127000
8.968188	-1.351914	14.174000
8.998484	-1.358313	14.221000
9.105368	-1.382676	14.267000
9.135789	-1.388847	14.426000
9.166574	-1.392493	14.473000
9.196966	-1.397694	14.519000
9.227508	-1.403014	14.565000
9.342233	-1.407670	14.611000
9.374039	-1.422413	14.783000
9.405261	-1.420734	14.829000
9.435069	-1.422813	14.875000
9.465015	-1.429037	14.922000
9.495933	-1.434587	14.968000
9.527454	-1.435511	15.014000
9.558769	-1.434524	15.061000
9.589305	-1.433884	15.107000
9.621350	-1.433063	15.154000
9.652518	-1.433198	15.200000
9.683559	-1.433042	15.247000
9.714569	-1.433167	15.294000
9.745735	-1.433000	15.340000
9.847616	-1.428626	15.385000
9.878782	-1.424676	15.541000
9.909611	-1.423488	15.587000
9.940558	-1.424725	15.634000
9.972318	-1.429111	15.680000
10.075534	-1.435985	15.727000
10.106657	-1.486948	15.882000
10.136925	-1.499770	15.929000
10.167892	-1.508906	15.975000
10.198784	-1.515588	16.021000
10.230505	-1.517314	16.068000
10.261397	-1.518523	16.114000
10.291554	-1.516386	16.160000
10.323472	-1.518238	16.206000
10.354032	-1.518835	16.253000
10.384393	-1.520076	16.299000
10.413709	-1.518122	16.345000
10.445466	-1.515841	16.390000
10.476320	-1.513203	16.437000
10.579926	-1.505439	16.483000
10.610851	-1.505523	16.638000
10.641460	-1.509378	16.685000
10.672593	-1.514307	16.731000
10.702992	-1.518187	16.777000
10.808337	-1.523619	16.824000
10.839413	-1.539479	16.983000
10.871224	-1.539268	17.029000
10.901429	-1.537041	17.075000
10.933386	-1.539131	17.122000
10.964680	-1.539490	17.168000
10.995188	-1.537663	17.214000
11.026338	-1.535842	17.261000
11.056466	-1.532501	17.307000
11.086516	-1.529725	17.353000
11.117691	-1.529159	17.399000
11.148572	-1.528717	17.445000
11.179544	-1.530294	17.491000
11.210754	-1.532976	17.538000
11.314143	-1.560094	17.584000
11.344396	-1.571144	17.739000
11.373958	-1.582217	17.784000
11.405762	-1.593657	17.830000
11.436404	-1.605726	17.877000
11.542636	-1.614020	17.923000
11.574499	-1.630475	18.083000
11.604405	-1.633829	18.129000
11.636920	-1.636442	18.176000
11.667838	-1.640605	18.222000
11.697796	-1.645678	18.268000
11.727634	-1.652370	18.313000
11.758461	-1.657454	18.360000
11.789774	-1.662212	18.407000
11.821032	-1.665022	18.453000
11.851978	-1.665581	18.500000
11.883620	-1.662392	18.547000
11.914882	-1.659245	18.593000
11.945784	-1.655566	18.639000
12.417685	-1.638130	18.686000
12.449211	-1.611516	19.395000
12.480290	-1.604541	19.441000
12.511596	-1.601061	19.487000
12.541665	-1.598387	19.534000
12.573341	-1.594948	19.580000
12.603837	-1.591455	19.626000
12.634361	-1.585741	19.673000
12.665343	-1.577112	19.720000
12.772324	-1.586935	19.766000
12.802849	-1.592944	19.927000
12.834504	-1.602265	19.973000
12.866071	-1.605601	20.020000
12.897295	-1.607142	20.066000
13.011007	-1.603650	20.113000
13.040354	-1.559819	20.283000
13.071499	-1.548514	20.329000
13.102304	-1.538102	20.375000
13.133706	-1.532605	20.421000
13.164446	-1.528065	20.468000
13.195345	-1.523357	20.514000
13.226400	-1.513572	20.560000
13.256920	-1.495851	20.607000
13.288535	-1.477584	20.653000
13.318860	-1.462229	20.699000
13.348764	-1.450896	20.745000
13.379416	-1.443950	20.792000
13.410824	-1.437950	20.838000
13.514902	-1.424915	20.885000
13.545902	-1.418484	21.039000
13.576771	-1.414964	21.085000
13.607464	-1.410811	21.132000
13.636867	-1.409369	21.178000
13.742653	-1.411011	21.225000
13.773632	-1.415793	21.383000
13.805110	-1.419156	21.429000
13.836244	-1.416173	21.475000
13.867138	-1.398242	21.522000
13.898901	-1.384096	21.568000
13.930055	-1.367992	21.615000
13.961285	-1.346249	21.662000
13.991473	-1.327251	21.708000
14.022743	-1.314834	21.754000
14.052723	-1.306645	21.801000
14.083891	-1.303417	21.847000
14.114773	-1.301990	21.894000
14.145915	-1.303772	21.940000
14.249490	-1.301609	21.987000
14.280380	-1.298065	22.141000
14.311315	-1.297554	22.187000
14.341266	-1.298571	22.234000
14.372712	-1.295769	22.280000
14.476831	-1.286584	22.327000
14.508482	-1.249599	22.483000
14.539455	-1.239114	22.529000
14.569679	-1.226300	22.575000
14.601519	-1.221311	22.622000
14.632960	-1.217901	22.669000
14.662899	-1.221332	22.715000
14.692636	-1.228626	22.761000
14.724121	-1.236723	22.808000
14.755050	-1.248980	22.854000
14.786339	-1.259894	22.900000
14.816951	-1.270801	22.945000
14.848632	-1.275498	22.993000
14.878973	-1.275794	23.039000
14.981776	-1.248949	23.085000
15.012882	-1.231636	23.240000
15.043934	-1.213424	23.286000
15.075532	-1.200032	23.333000
15.106934	-1.193112	23.379000
15.211746	-1.193175	23.426000
15.242724	-1.229056	23.582000
15.273177	-1.245489	23.628000
15.303887	-1.260682	23.675000
15.334894	-1.273572	23.721000
15.365526	-1.278751	23.768000
15.396863	-1.278804	23.814000
15.428331	-1.275112	23.861000
15.458654	-1.266828	23.907000
15.490273	-1.260661	23.954000
15.520573	-1.255599	24.000000
15.551804	-1.254561	24.046000
15.582595	-1.257789	24.092000
15.613121	-1.265411	24.139000
16.087250	-1.291472	24.185000
16.117080	-1.388983	24.895000
16.148825	-1.405714	24.941000
16.179432	-1.418389	24.988000
16.210507	-1.430550	25.034000
16.240244	-1.436803	25.080000
16.271810	-1.442249	25.127000
16.302824	-1.447419	25.173000
16.335091	-1.445759	25.220000
16.440736	-1.398484	25.267000
16.471050	-1.375076	25.426000
16.502671	-1.334822	25.472000
16.533530	-1.283667	25.518000
16.564826	-1.248928	25.565000
16.677840	-1.218404	25.611000
16.708530	-1.099380	25.783000
16.739967	-1.069344	25.829000
16.771576	-1.042668	25.875000
16.802675	-1.021290	25.922000
16.833017	-0.996885	25.968000
16.864577	-0.963157	26.015000
16.895520	-0.926741	26.061000
16.925806	-0.880608	26.108000
16.955870	-0.845932	26.154000
16.987318	-0.823781	26.200000
17.018482	-0.816140	26.247000
17.049274	-0.813138	26.293000
17.080843	-0.817491	26.339000
17.182755	-0.842187	26.386000
17.213882	-0.855137	26.540000
17.244128	-0.869682	26.586000
17.275323	-0.881521	26.632000
17.306068	-0.898855	26.679000
17.411760	-0.917154	26.725000
17.443087	-0.953971	26.883000
17.473704	-0.958616	26.929000
17.505631	-0.961990	26.975000
17.535080	-0.966234	27.022000
17.566480	-0.967790	27.068000
17.596726	-0.962587	27.114000
17.627206	-0.952383	27.160000
17.657951	-0.940042	27.207000
17.689231	-0.925457	27.253000
17.721063	-0.903679	27.299000
17.751951	-0.887893	27.346000
17.782819	-0.878572	27.393000
17.814110	-0.871064	27.438000
17.916446	-0.867868	27.485000
17.947501	-0.871981	27.640000
17.978597	-0.877537	27.687000
18.009831	-0.879091	27.733000
18.041106	-0.877045	27.780000
18.145230	-0.877003	27.826000
18.176779	-0.894224	27.982000
18.207574	-0.896854	28.029000
18.237261	-0.896794	28.075000
18.267303	-0.891949	28.121000
18.298946	-0.883925	28.167000
18.329810	-0.875430	28.214000
18.361408	-0.872548	28.260000
18.392603	-0.877161	28.307000
18.424073	-0.889653	28.353000
18.454958	-0.904775	28.399000
18.485308	-0.920941	28.446000
18.515763	-0.933457	28.492000
18.546399	-0.933753	28.538000
18.649444	-0.930053	28.585000
18.680506	-0.943317	28.739000
18.712018	-0.949245	28.785000
18.742711	-0.949526	28.831000
18.773572	-0.946690	28.877000
18.879058	-0.942214	28.923000
18.910076	-0.912407	29.083000
18.940804	-0.897303	29.129000
18.971094	-0.880444	29.176000
19.002666	-0.873261	29.222000
19.034053	-0.876542	29.268000
19.064977	-0.890387	29.315000
19.095476	-0.904691	29.361000
19.127155	-0.920509	29.407000
19.158160	-0.935580	29.454000
19.188584	-0.946195	29.500000
19.217876	-0.931648	29.546000
19.249330	-0.926057	29.592000
19.280450	-0.946269	29.639000
19.754261	-0.859634	29.685000
19.784398	-0.840707	30.395000
19.815587	-0.855765	30.442000
19.846265	-0.869556	30.488000
19.877214	-0.883322	30.534000
19.907900	-0.893725	30.580000
19.939634	-0.903436	30.626000
19.970706	-0.911290	30.673000
20.001776	-0.914358	30.719000
20.109740	-0.925299	30.766000
20.140597	-0.928630	30.926000
20.170102	-0.932896	30.973000
20.200864	-0.936806	31.019000
20.231085	-0.942242	31.065000
20.346107	-0.943430	31.111000
20.377420	-0.942221	31.283000
20.408467	-0.941767	31.329000
20.439898	-0.942210	31.376000
20.470953	-0.942724	31.421000
20.500876	-0.944280	31.469000
20.531533	-0.948493	31.515000
20.562346	-0.951744	31.561000
20.593756	-0.955053	31.608000
20.624278	-0.960338	31.654000
20.655598	-0.963556	31.700000
20.686526	-0.965405	31.747000
20.717260	-0.968756	31.792000
20.747832	-0.969755	31.839000
20.850466	-0.968778	31.886000
20.881033	-0.961557	32.040000
20.912905	-0.951133	32.086000
20.943685	-0.943828	32.133000
20.974930	-0.941979	32.179000
21.080153	-0.938939	32.226000
21.110080	-0.900745	32.383000
21.141619	-0.884981	32.429000
21.171657	-0.864384	32.475000
21.202389	-0.845229	32.522000
21.232937	-0.826498	32.568000
21.264911	-0.811336	32.614000
21.295997	-0.801330	32.660000
21.326857	-0.797128	32.707000
21.357693	-0.795838	32.753000
21.388642	-0.796865	32.799000
21.419731	-0.800219	32.845000
21.448951	-0.804498	32.892000
21.480261	-0.808524	32.937000
21.583575	-0.806259	32.984000
21.614776	-0.801826	33.138000
21.645794	-0.800911	33.185000
21.676950	-0.798625	33.231000
21.707788	-0.797902	33.278000
21.812561	-0.795859	33.325000
21.843268	-0.801499	33.483000
21.873825	-0.809804	33.528000
21.904924	-0.820436	33.575000
21.935810	-0.826361	33.621000
21.968017	-0.836209	33.668000
21.998795	-0.833009	33.714000
22.028968	-0.830211	33.760000
22.058783	-0.828332	33.806000
22.089853	-0.822943	33.852000
22.120280	-0.798855	33.899000
22.150898	-0.775095	33.945000
22.181663	-0.759681	33.990000
22.212850	-0.730353	34.036000
22.317553	-0.603433	34.082000
22.348467	-0.585798	34.238000
22.378286	-0.580741	34.285000
22.408043	-0.580858	34.331000
22.439647	-0.584008	34.377000
22.546222	-0.582684	34.423000
22.577077	-0.575664	34.583000
22.608022	-0.576946	34.629000
22.638842	-0.578376	34.675000
22.670300	-0.578994	34.722000
22.700784	-0.574992	34.768000
22.731047	-0.564561	34.812000
22.760873	-0.552110	34.859000
22.791726	-0.538099	34.905000
22.822240	-0.525290	34.949000
22.852915	-0.508525	34.995000
22.883499	-0.484583	35.041000
22.914634	-0.455598	35.088000
22.946213	-0.423658	35.134000
23.421788	-0.262435	35.181000
23.452113	-0.205070	35.895000
23.482973	-0.213604	35.941000
23.513796	-0.221517	35.987000
23.544587	-0.213626	36.032000
23.574687	-0.203545	36.078000
23.604101	-0.202968	36.123000
23.634751	-0.203210	36.169000
23.665759	-0.204019	36.215000
23.775607	-0.263242	36.261000
23.805882	-0.291575	36.426000
23.836783	-0.310272	36.471000
23.867794	-0.322353	36.517000
23.898748	-0.337181	36.563000
24.014267	-0.350601	36.609000
24.044484	-0.321429	36.782000
24.073086	-0.294387	36.828000
24.104269	-0.262521	36.873000
24.135241	-0.230390	36.919000
24.165852	-0.199037	36.965000
24.196304	-0.169662	37.010000
24.227203	-0.147494	37.056000
24.257754	-0.134470	37.102000
24.287545	-0.127105	37.148000
24.317128	-0.125718	37.193000
24.348638	-0.125834	37.239000
24.379560	-0.132000	37.284000
24.410136	-0.143973	37.331000
24.519994	-0.165288	37.377000
24.559514	-0.184954	37.556000
24.591932	-0.191573	37.601000
24.622126	-0.189251	37.649000
24.653016	-0.186500	37.695000
24.756097	-0.183155	37.740000
24.793834	-0.147832	37.900000
24.826664	-0.138318	37.953000
24.862697	-0.126504	38.002000
24.894009	-0.132011	38.057000
24.926026	-0.143830	38.105000
24.957398	-0.152196	38.153000
24.992976	-0.160034	38.205000
25.026276	-0.165143	38.251000
25.057947	-0.166897	38.301000
25.087888	-0.153173	38.348000
25.120385	-0.148622	38.395000
25.150963	-0.158942	38.444000
25.254058	-0.213794	38.490000
25.285704	-0.218218	38.643000
25.316400	-0.213151	38.689000
25.347247	-0.200150	38.735000
25.376004	-0.188790	38.781000
25.480972	-0.181127	38.827000
25.511544	-0.194624	38.984000
25.542952	-0.208077	39.029000
25.574349	-0.224314	39.075000
25.605244	-0.243904	39.122000
25.636074	-0.265058	39.169000
25.666387	-0.290873	39.215000
25.696616	-0.316174	39.261000
25.726498	-0.343839	39.306000
25.757883	-0.369466	39.353000
25.788170	-0.396730	39.397000
25.819153	-0.422418	39.443000
25.849318	-0.450920	39.489000
25.880953	-0.479055	39.535000
25.982004	-0.543501	39.581000
26.013330	-0.549333	39.736000
26.043556	-0.549259	39.781000
26.074797	-0.547528	39.827000
26.105806	-0.549032	39.873000
26.213474	-0.555935	39.919000
26.244853	-0.614961	40.082000
26.275151	-0.636729	40.127000
26.305589	-0.658075	40.173000
26.334510	-0.677235	40.219000
26.366357	-0.693251	40.265000
26.396811	-0.707368	40.311000
26.427879	-0.718398	40.356000
26.457877	-0.729494	40.402000
26.489289	-0.735733	40.448000
26.519706	-0.740254	40.494000
26.549283	-0.746365	40.539000
26.579429	-0.750739	40.586000
26.610732	-0.751492	40.631000
26.855204	-0.700740	40.678000
27.100927	-0.688096	41.044000
27.131616	-0.603189	41.412000
27.161774	-0.593077	41.457000
27.192819	-0.578269	41.503000
27.223445	-0.564217	41.549000
27.252675	-0.553401	41.595000
27.283147	-0.550963	41.640000
27.314035	-0.545664	41.686000
27.345009	-0.540031	41.732000
27.448490	-0.531771	41.777000
27.478474	-0.532435	41.933000
27.508175	-0.531792	41.978000
27.539331	-0.532821	42.023000
27.570005	-0.538824	42.069000
27.680668	-0.546915	42.115000
27.711049	-0.589715	42.282000
27.741698	-0.604631	42.328000
27.772455	-0.622842	42.373000
27.803776	-0.640239	42.420000
27.834455	-0.651545	42.466000
27.864580	-0.658619	42.511000
27.894800	-0.651640	42.557000
27.925636	-0.626239	42.603000
27.956429	-0.599638	42.650000
27.986618	-0.579183	42.696000
28.018354	-0.564154	42.742000
28.049849	-0.550921	42.789000
28.080942	-0.542565	42.835000
28.184098	-0.477604	42.881000
28.214106	-0.464358	43.036000
28.243843	-0.458708	43.082000
28.275185	-0.455733	43.128000
28.306292	-0.451563	43.174000
28.414385	-0.441086	43.221000
28.444882	-0.435298	43.383000
28.475604	-0.443434	43.428000
28.507439	-0.454706	43.475000
28.538171	-0.466148	43.521000
28.568680	-0.474796	43.567000
28.598294	-0.485338	43.613000
28.629508	-0.493861	43.660000
28.659756	-0.502291	43.705000
28.691018	-0.511444	43.752000
28.722074	-0.517899	43.798000
28.753050	-0.522703	43.844000
28.783732	-0.524139	43.889000
28.813477	-0.525632	43.935000
28.915776	-0.520693	43.981000
28.946414	-0.514178	44.136000
28.977847	-0.507200	44.181000
29.008442	-0.502081	44.227000
29.039528	-0.495239	44.273000
29.148237	-0.488113	44.319000
29.178358	-0.455192	44.483000
29.209386	-0.444307	44.529000
29.240187	-0.432416	44.575000
29.271103	-0.419852	44.621000
29.300802	-0.404899	44.668000
29.332146	-0.393313	44.713000
29.363203	-0.381921	44.759000
29.393945	-0.372244	44.805000
29.423783	-0.365050	44.850000
29.455124	-0.356371	44.896000
29.484669	-0.351083	44.941000
29.514554	-0.347163	44.987000
29.545051	-0.344110	45.033000
29.649043	-0.349314	45.078000
29.679800	-0.353244	45.234000
29.710589	-0.355207	45.279000
29.740286	-0.359399	45.325000
29.770004	-0.365103	45.371000
29.881671	-0.368605	45.417000
29.912509	-0.387982	45.583000
29.943646	-0.391382	45.629000
29.973725	-0.395281	45.676000
30.004827	-0.399258	45.722000
30.034733	-0.402201	45.769000
30.064618	-0.408013	45.815000
30.095110	-0.414891	45.861000
30.125563	-0.422872	45.907000
30.157056	-0.431303	45.953000
30.187494	-0.440877	45.999000
30.218170	-0.447534	46.046000
30.247918	-0.451710	46.092000
30.279843	-0.457498	46.138000
30.754564	-0.409795	46.185000
30.784740	-0.419682	46.895000
30.815340	-0.427885	46.941000
30.845090	-0.434900	46.988000
30.876832	-0.440152	47.034000
30.906982	-0.445008	47.079000
30.938087	-0.448071	47.125000
30.968834	-0.451172	47.171000
30.999804	-0.454255	47.217000
31.108429	-0.458843	47.262000
31.139201	-0.458991	47.426000
31.169712	-0.460654	47.472000
31.198404	-0.459001	47.518000
31.230104	-0.459575	47.564000
31.345612	-0.456355	47.610000
31.376716	-0.452220	47.783000
31.407903	-0.456602	47.830000
31.437955	-0.464314	47.875000
31.468898	-0.474553	47.920000
31.499909	-0.485136	47.967000
31.530193	-0.495702	48.014000
31.560476	-0.501198	48.060000
31.592279	-0.506001	48.107000
31.623144	-0.510425	48.153000
31.654168	-0.516827	48.199000
31.685574	-0.523014	48.246000
31.716211	-0.531317	48.292000
31.747890	-0.541283	48.338000
31.849429	-0.557239	48.385000
31.880353	-0.561684	48.539000
31.910659	-0.554516	48.585000
31.942082	-0.547317	48.632000
31.973736	-0.551698	48.678000
32.079416	-0.553539	48.724000
32.110603	-0.558153	48.883000
32.140453	-0.551100	48.929000
32.171958	-0.538539	48.975000
32.202411	-0.531581	49.022000
32.232536	-0.528334	49.068000
32.262901	-0.526768	49.113000
32.294468	-0.527432	49.159000
32.325298	-0.526472	49.206000
32.355967	-0.523468	49.251000
32.386727	-0.519990	49.297000
32.416754	-0.515398	49.343000
32.446897	-0.509973	49.389000
32.477362	-0.503310	49.435000
32.581153	-0.494029	49.481000
32.611130	-0.496184	49.635000
32.643420	-0.489384	49.682000
32.673317	-0.477772	49.728000
32.703240	-0.477129	49.774000
32.813363	-0.488482	49.818000
32.843098	-0.476960	49.982000
32.872633	-0.447955	50.028000
32.903778	-0.411250	50.074000
32.934980	-0.370113	50.120000
32.965995	-0.347792	50.166000
32.996291	-0.345903	50.212000
33.027436	-0.350446	50.258000
33.057897	-0.352917	50.304000
33.087063	-0.351578	50.349000
33.117993	-0.348013	50.395000
33.148796	-0.345359	50.441000
33.179748	-0.347507	50.487000
33.210471	-0.353234	50.533000
33.314217	-0.379857	50.579000
33.344048	-0.387410	50.735000
33.374501	-0.395567	50.780000
33.405404	-0.400798	50.826000
33.436299	-0.406105	50.872000
33.545631	-0.410591	50.918000
33.575957	-0.419578	51.083000
33.607218	-0.418730	51.128000
33.638969	-0.414779	51.176000
33.669988	-0.407216	51.222000
33.700303	-0.400243	51.269000
33.732469	-0.397096	51.314000
33.763284	-0.395535	51.361000
33.793975	-0.398721	51.408000
33.823541	-0.403703	51.454000
33.854790	-0.412356	51.500000
33.885593	-0.420815	51.545000
33.917245	-0.430400	51.592000
33.947925	-0.439135	51.639000
34.420942	-0.495365	51.685000
34.452382	-0.359126	52.395000
34.482905	-0.322194	52.442000
34.514518	-0.280124	52.488000
34.545245	-0.248288	52.535000
34.576985	-0.230652	52.581000
34.607753	-0.219606	52.628000
34.637723	-0.211229	52.673000
34.668925	-0.208854	52.719000
34.776179	-0.231630	52.766000
34.806724	-0.239775	52.926000
34.836509	-0.246963	52.972000
34.867738	-0.249266	53.019000
34.898760	-0.251866	53.065000
35.013932	-0.253521	53.112000
35.045123	-0.290989	53.284000
35.075361	-0.309610	53.329000
35.104850	-0.329419	53.374000
35.135465	-0.351293	53.420000
35.166022	-0.372293	53.466000
35.196990	-0.388066	53.512000
35.227447	-0.400587	53.558000
35.258584	-0.408368	53.604000
35.289065	-0.414398	53.650000
35.319015	-0.419264	53.695000
35.348538	-0.422998	53.740000
35.379726	-0.426940	53.786000
35.410340	-0.431335	53.832000
35.513879	-0.443915	53.877000
35.544928	-0.445427	54.033000
35.575100	-0.448029	54.079000
35.605323	-0.450367	54.125000
35.636238	-0.455775	54.171000
35.747248	-0.461524	54.218000
35.777026	-0.450188	54.383000
35.807268	-0.450083	54.429000
35.837752	-0.454193	54.474000
35.869189	-0.460814	54.521000
35.900214	-0.468056	54.567000
35.931286	-0.477951	54.613000
35.962028	-0.487796	54.658000
35.992677	-0.497909	54.705000
36.022431	-0.504708	54.750000
36.053027	-0.505453	54.796000
36.084252	-0.505067	54.843000
36.115052	-0.503784	54.889000
36.146043	-0.500544	54.935000
36.249274	-0.491697	54.981000
36.280472	-0.488741	55.136000
36.309616	-0.486302	55.183000
36.340949	-0.488250	55.229000
36.371840	-0.491581	55.275000
36.479374	-0.495322	55.321000
36.510527	-0.514304	55.483000
36.540826	-0.520881	55.528000
36.572686	-0.527505	55.575000
36.603412	-0.533496	55.621000
36.634468	-0.535344	55.667000
36.664200	-0.537857	55.713000
36.695387	-0.537951	55.760000
36.726451	-0.536184	55.806000
36.756935	-0.531464	55.853000
36.787696	-0.526053	55.899000
36.818714	-0.521335	55.944000
36.849955	-0.518306	55.991000
36.881065	-0.516921	56.037000
36.984023	-0.526234	56.084000
37.013344	-0.529384	56.238000
37.045149	-0.532631	56.284000
37.076459	-0.535282	56.331000
37.107639	-0.538581	56.377000
37.214043	-0.540137	56.424000
37.244700	-0.549512	56.583000
37.276383	-0.552822	56.630000
37.307140	-0.556343	56.676000
37.337766	-0.557741	56.722000
37.367286	-0.557281	56.767000
37.397993	-0.550594	56.814000
37.429360	-0.536437	56.860000
37.459991	-0.514827	56.907000
37.491070	-0.497192	56.953000
37.522618	-0.489059	57.000000
37.554520	-0.489480	57.046000
37.585004	-0.489744	57.093000
37.616049	-0.488647	57.139000
38.088493	-0.456856	57.186000
38.119458	-0.425671	57.894000
38.150134	-0.430946	57.941000
38.181117	-0.434500	57.986000
38.210426	-0.436556	58.033000
38.241544	-0.438119	58.079000
38.272067	-0.441148	58.124000
38.302896	-0.446539	58.171000
38.333853	-0.457758	58.217000
38.442904	-0.493882	58.263000
38.473972	-0.498695	58.427000
38.505271	-0.502027	58.474000
38.536212	-0.503816	58.520000
38.566454	-0.503922	58.566000
38.680496	-0.505046	58.612000
38.712317	-0.509585	58.783000
38.742475	-0.510119	58.830000
38.773135	-0.510520	58.876000
38.803762	-0.511622	58.922000
38.835164	-0.507399	58.968000
38.866366	-0.505157	59.013000
38.897120	-0.504603	59.060000
38.927369	-0.506244	59.106000
38.957454	-0.508187	59.152000
38.987488	-0.507020	59.197000
39.018215	-0.506128	59.243000
39.048656	-0.504297	59.289000
39.079944	-0.502680	59.334000
39.183770	-0.404592	59.380000
39.213732	-0.372905	59.536000
39.243140	-0.342264	59.581000
39.273778	-0.315988	59.627000
39.305595	-0.296365	59.674000
39.413897	-0.284495	59.719000
39.444558	-0.287034	59.882000
39.475396	-0.294164	59.929000
39.505557	-0.308038	59.974000
39.536521	-0.320956	60.020000
39.567616	-0.337996	60.066000
39.597505	-0.354521	60.112000
39.627344	-0.368960	60.158000
39.658250	-0.377004	60.203000
39.689146	-0.378502	60.249000
39.720356	-0.377550	60.296000
39.750429	-0.375359	60.341000
39.781885	-0.376027	60.386000
39.811697	-0.382068	60.432000
39.914663	-0.420847	60.479000
39.945339	-0.432340	60.633000
39.976553	-0.440434	60.679000
40.006968	-0.442794	60.725000
40.038428	-0.438800	60.771000
40.147975	-0.427685	60.817000
40.178589	-0.360143	60.982000
40.209216	-0.351452	61.028000
40.239273	-0.343210	61.074000
40.270176	-0.327890	61.120000
40.300180	-0.312307	61.166000
40.330964	-0.301253	61.211000
40.362155	-0.291795	61.258000
40.392504	-0.283869	61.304000
40.423557	-0.278634	61.350000
40.453619	-0.274253	61.395000
40.485244	-0.272459	61.441000
40.514871	-0.271073	61.487000
40.545159	-0.270835	61.534000
40.649155	-0.249382	61.579000
40.679770	-0.233039	61.734000
40.710573	-0.220656	61.780000
40.741591	-0.212818	61.826000
40.771326	-0.211700	61.871000
40.881476	-0.213267	61.917000
40.912217	-0.223724	62.083000
40.941295	-0.227856	62.129000
40.972494	-0.217316	62.174000
41.003151	-0.201422	62.220000
41.034031	-0.189989	62.265000
41.064015	-0.186278	62.312000
41.095460	-0.183375	62.357000
41.126263	-0.185397	62.403000
41.156478	-0.193161	62.448000
41.186033	-0.210659	62.495000
41.217074	-0.228696	62.540000
41.247927	-0.248918	62.586000
41.278822	-0.265393	62.632000
41.523102	-0.282326	62.679000
41.768992	-0.279579	63.046000
41.800048	-0.332440	63.413000
41.830967	-0.344500	63.460000
41.861224	-0.352668	63.505000
41.889783	-0.355907	63.550000
41.921343	-0.357450	63.596000
41.952089	-0.355403	63.642000
41.982795	-0.349331	63.688000
42.012911	-0.344089	63.734000
42.115965	-0.328495	63.780000
42.146342	-0.329712	63.934000
42.177026	-0.334504	63.980000
42.207794	-0.336414	64.025000
42.238220	-0.333752	64.072000
42.347848	-0.334255	64.117000
42.379139	-0.345872	64.283000
42.410149	-0.347363	64.329000
42.440825	-0.350393	64.375000
42.471294	-0.349929	64.420000
42.502558	-0.347960	64.467000
42.532508	-0.347770	64.513000
42.562082	-0.348818	64.558000
42.592166	-0.349532	64.604000
42.623684	-0.350551	64.650000
42.654748	-0.352816	64.696000
42.685778	-0.352616	64.742000
42.715989	-0.350478	64.788000
42.747027	-0.348723	64.833000
42.849282	-0.327279	64.879000
42.880204	-0.316511	65.035000
42.911410	-0.300584	65.081000
42.941829	-0.287339	65.126000
42.972551	-0.281864	65.172000
43.081756	-0.281193	65.218000
43.112855	-0.293713	65.383000
43.143712	-0.296513	65.428000
43.174019	-0.296566	65.474000
43.202778	-0.292916	65.520000
43.233597	-0.279851	65.565000
43.264300	-0.267719	65.611000
43.295499	-0.258722	65.657000
43.326071	-0.253637	65.702000
43.356655	-0.252566	65.748000
43.386993	-0.257432	65.794000
43.416736	-0.262969	65.840000
43.446924	-0.266369	65.886000
43.477984	-0.271411	65.931000
43.581945	-0.269915	65.977000
43.612718	-0.266023	66.132000
43.643236	-0.260383	66.177000
43.672291	-0.254834	66.224000
43.703256	-0.253448	66.270000
43.815972	-0.251121	66.315000
43.846360	-0.245154	66.482000
43.876717	-0.243191	66.529000
43.906084	-0.240878	66.574000
43.937198	-0.236096	66.621000
43.968227	-0.231272	66.666000
43.999053	-0.227540	66.712000
44.029349	-0.221591	66.758000
44.060594	-0.214423	66.803000
44.090444	-0.204975	66.849000
44.119922	-0.195024	66.895000
44.149795	-0.183545	66.940000
44.181516	-0.171963	66.985000
44.212388	-0.161286	67.031000
44.316699	-0.111686	67.078000
44.346607	-0.093154	67.233000
44.375527	-0.074859	67.279000
44.407521	-0.048657	67.324000
44.438432	-0.021771	67.371000
44.548889	-0.002939	67.417000
44.578709	0.048487	67.582000
44.609331	0.046652	67.628000
44.640161	0.041240	67.673000
44.670733	0.031142	67.719000
44.701682	0.022366	67.765000
44.731878	0.013664	67.812000
44.762420	0.007789	67.857000
44.792455	0.001256	67.903000
44.823688	-0.002288	67.949000
44.853350	-0.003062	67.996000
44.885086	-0.006564	68.041000
44.915682	-0.007749	68.086000
44.947061	-0.009029	68.132000
45.192601	-0.006629	68.178000
45.438188	-0.009093	68.546000
45.468234	0.012528	68.913000
45.498415	0.027260	68.960000
45.528853	0.039103	69.005000
45.559552	0.054914	69.051000
45.590036	0.073691	69.097000
45.621092	0.096711	69.144000
45.652483	0.122979	69.189000
45.681730	0.147779	69.235000
45.784773	0.215489	69.280000
45.814458	0.228501	69.435000
45.846168	0.236741	69.481000
45.877055	0.245519	69.526000
45.908000	0.252925	69.572000
46.016856	0.254872	69.619000
46.047321	0.266348	69.783000
46.078289	0.272550	69.829000
46.108907	0.285182	69.875000
46.138592	0.306455	69.920000
46.168227	0.322992	69.966000
46.199653	0.329822	70.011000
46.230606	0.331723	70.057000
46.261170	0.330043	70.103000
46.291824	0.327447	70.148000
46.322250	0.326281	70.194000
46.352189	0.318157	70.240000
46.382335	0.308013	70.286000
46.413180	0.298659	70.331000
46.516084	0.262564	70.378000
46.547352	0.259285	70.533000
46.578632	0.255500	70.579000
46.608393	0.251214	70.624000
46.638128	0.245139	70.670000
46.750030	0.239222	70.716000
46.781632	0.219506	70.883000
46.811525	0.211013	70.928000
46.841517	0.199650	70.975000
46.871729	0.187324	71.020000
46.903046	0.175409	71.066000
46.933742	0.165353	71.111000
46.964602	0.156711	71.158000
46.994476	0.148954	71.203000
47.024841	0.142024	71.249000
47.054806	0.136254	71.295000
47.085759	0.131746	71.341000
47.116489	0.126732	71.387000
47.147503	0.123357	71.433000
47.251430	0.115010	71.479000
47.281457	0.113532	71.634000
47.311115	0.109085	71.679000
47.342064	0.104177	71.725000
47.372682	0.100287	71.770000
47.482874	0.098775	71.816000
47.513382	0.096954	71.983000
47.544488	0.097896	72.029000
47.575318	0.096690	72.075000
47.606774	0.095851	72.121000
47.637450	0.097172	72.166000
47.667992	0.098305	72.213000
47.697516	0.099271	72.258000
47.727796	0.096374	72.304000
47.759052	0.092893	72.350000
47.789863	0.089079	72.395000
47.820032	0.086279	72.442000
47.851166	0.085344	72.488000
47.882756	0.086852	72.534000
47.984831	0.100987	72.580000
48.014869	0.108075	72.735000
48.046206	0.116507	72.780000
48.076475	0.124341	72.826000
48.107927	0.131126	72.872000
48.216648	0.137156	72.918000
48.247705	0.152539	73.082000
48.278777	0.158074	73.129000
48.309038	0.163788	73.175000
48.340932	0.167880	73.221000
48.371535	0.170376	73.267000
48.401927	0.174047	73.314000
48.431071	0.175251	73.359000
48.462081	0.175000	73.405000
48.493207	0.176510	73.451000
48.524290	0.180661	73.497000
48.554974	0.188595	73.543000
48.585854	0.193596	73.589000
48.615965	0.195690	73.635000
49.092028	0.240937	73.681000
49.122612	0.242437	74.394000
49.153834	0.237666	74.441000
49.185163	0.230961	74.487000
49.215332	0.225915	74.533000
49.245920	0.221871	74.579000
49.276105	0.221175	74.625000
49.306393	0.219137	74.671000
49.337469	0.209889	74.717000
49.446574	0.170494	74.762000
49.477146	0.160350	74.927000
49.507734	0.150759	74.973000
49.538360	0.146236	75.018000
49.569010	0.144520	75.064000
49.685379	0.145442	75.110000
49.715864	0.192180	75.284000
49.746909	0.205989	75.330000
49.777285	0.222458	75.377000
49.807961	0.250719	75.423000
49.838780	0.285361	75.470000
49.870620	0.314520	75.516000
49.901358	0.340152	75.562000
49.932295	0.365071	75.608000
49.962476	0.387584	75.654000
49.994904	0.407684	75.701000
50.025557	0.419115	75.747000
50.055780	0.421213	75.794000
50.084593	0.414439	75.839000
50.189610	0.378304	75.885000
50.220743	0.368698	76.041000
50.251654	0.358167	76.087000
50.282607	0.349474	76.133000
50.312787	0.344021	76.179000
50.417813	0.343160	76.226000
50.447878	0.339440	76.384000
50.479591	0.332450	76.430000
50.511090	0.323493	76.476000
50.541704	0.313781	76.523000
50.572673	0.320120	76.569000
50.603914	0.340627	76.615000
50.634832	0.347151	76.661000
50.665331	0.350170	76.707000
50.695712	0.359629	76.754000
50.725566	0.372693	76.799000
50.756407	0.389633	76.845000
50.786745	0.405757	76.892000
50.818678	0.421671	76.938000
50.922151	0.457577	76.984000
50.954260	0.463010	77.140000
50.984229	0.467665	77.186000
51.014191	0.468850	77.232000
51.044525	0.467320	77.279000
51.150284	0.464813	77.324000
51.182259	0.445120	77.483000
51.212912	0.437486	77.530000
51.244172	0.429139	77.576000
51.275244	0.419512	77.623000
51.306846	0.411375	77.669000
51.337511	0.404559	77.715000
51.367837	0.399503	77.762000
51.398583	0.394567	77.808000
51.429370	0.389299	77.855000
51.460653	0.385473	77.901000
51.491572	0.384106	77.948000
51.523120	0.383980	77.994000
51.554042	0.384317	78.040000
51.656770	0.384495	78.087000
51.687062	0.386829	78.241000
51.717557	0.384158	78.287000
51.748591	0.381340	78.334000
51.780116	0.375824	78.380000
51.884988	0.367268	78.426000
51.916075	0.345220	78.583000
51.947108	0.341825	78.630000
51.977393	0.339123	78.676000
52.008111	0.336252	78.722000
52.038407	0.335012	78.768000
52.068826	0.332366	78.814000
52.099544	0.334635	78.860000
52.130858	0.334034	78.906000
52.162383	0.332450	78.952000
52.192841	0.329263	78.999000
52.223659	0.324147	79.045000
52.254669	0.322960	79.092000
52.284881	0.319498	79.137000
52.760149	0.349168	79.183000
52.791332	0.333823	79.896000
52.821547	0.336589	79.942000
52.852972	0.336800	79.988000
52.883714	0.336695	80.034000
52.913822	0.339343	80.081000
52.944087	0.341108	80.126000
52.975543	0.346385	80.173000
53.006473	0.352154	80.219000
53.114406	0.369442	80.266000
53.145416	0.372091	80.428000
53.176181	0.375486	80.474000
53.207879	0.377200	80.520000
53.238670	0.372671	80.566000
53.351137	0.367488	80.612000
53.381975	0.402670	80.783000
53.413277	0.413492	80.830000
53.444718	0.419543	80.876000
53.475717	0.423959	80.923000
53.507357	0.426244	80.969000
53.538183	0.431026	81.016000
53.569712	0.437077	81.063000
53.601072	0.442004	81.109000
53.631568	0.449943	81.156000
53.660946	0.453153	81.202000
53.692478	0.456719	81.248000
53.722840	0.458258	81.293000
53.753627	0.460252	81.340000
53.857903	0.511140	81.386000
53.887581	0.525296	81.541000
53.919694	0.540503	81.587000
53.949571	0.556923	81.634000
53.980316	0.565626	81.680000
54.084992	0.576395	81.726000
54.115741	0.614883	81.883000
54.147255	0.611700	81.930000
54.178396	0.605849	81.976000
54.209967	0.599411	82.022000
54.240151	0.597808	82.069000
54.271630	0.596131	82.116000
54.302241	0.599788	82.162000
54.333613	0.605044	82.209000
54.363256	0.613138	82.256000
54.395192	0.622817	82.300000
54.425649	0.631531	82.348000
54.456345	0.639139	82.394000
54.487186	0.645540	82.439000
54.589115	0.670545	82.485000
54.619603	0.675432	82.639000
54.651059	0.677976	82.686000
54.682430	0.683472	82.732000
54.712503	0.690660	82.779000
54.819253	0.696429	82.825000
54.850375	0.702326	82.984000
54.881236	0.696524	83.030000
54.911966	0.688264	83.075000
54.941121	0.685836	83.122000
54.972577	0.698510	83.168000
55.003503	0.740016	83.215000
55.035166	0.794494	83.261000
55.065162	0.842656	83.308000
55.097156	0.881006	83.354000
55.128332	0.906192	83.400000
55.159477	0.925980	83.447000
55.188597	0.939965	83.492000
55.220745	0.953316	83.539000
55.323257	0.965439	83.585000
55.353968	0.954648	83.740000
55.385248	0.941045	83.786000
55.415555	0.935521	83.832000
55.446984	0.945795	83.878000
55.552071	0.969076	83.925000
55.583262	1.056725	84.083000
55.613304	1.057849	84.130000
55.644299	1.056156	84.175000
55.674599	1.055358	84.222000
55.706589	1.054319	84.268000
55.738079	1.054266	84.315000
55.768890	1.056145	84.362000
55.800377	1.055738	84.408000
55.831322	1.052656	84.454000
55.862125	1.044249	84.501000
55.891929	1.034101	84.547000
55.923220	1.021434	84.594000
55.952959	1.010976	84.640000
56.427981	0.951188	84.686000
56.458284	0.956564	85.395000
56.487923	0.953693	85.441000
56.519256	0.953147	85.488000
56.550582	0.958277	85.534000
56.581919	0.967239	85.581000
56.611827	0.979898	85.626000
56.643417	0.992028	85.672000
56.674466	1.004320	85.719000
56.782015	1.028060	85.765000
56.813414	1.024579	85.927000
56.843502	1.019460	85.974000
56.875546	1.014837	86.019000
56.905811	1.016578	86.067000
57.019200	1.028261	86.113000
57.050633	1.071051	86.284000
57.080648	1.072397	86.330000
57.112339	1.071595	86.375000
57.142688	1.068275	86.421000
57.172051	1.068011	86.466000
57.201743	1.072070	86.512000
57.233261	1.077744	86.558000
57.263864	1.085857	86.604000
57.294552	1.099639	86.649000
57.324967	1.110201	86.695000
57.355555	1.122267	86.740000
57.385747	1.135532	86.786000
57.415393	1.146315	86.832000
57.519673	1.169321	86.877000
57.550054	1.166127	87.032000
57.580880	1.160316	87.078000
57.610933	1.152555	87.124000
57.640991	1.141835	87.169000
57.753323	1.131853	87.214000
57.783669	1.117053	87.383000
57.814084	1.106289	87.428000
57.844007	1.096809	87.474000
57.874130	1.072407	87.519000
57.904822	1.042469	87.565000
57.935625	0.996350	87.611000
57.966674	0.961098	87.657000
57.997623	0.940981	87.703000
58.027281	0.936294	87.748000
58.057404	0.925478	87.794000
58.087961	0.915703	87.839000
58.118291	0.923620	87.885000
58.148837	0.937964	87.931000
58.252076	1.016063	87.977000
58.280881	1.036471	88.131000
58.311784	1.067868	88.177000
58.342460	1.094414	88.222000
58.373221	1.111599	88.268000
58.487032	1.150750	88.314000
58.518642	1.288229	88.485000
58.549963	1.300947	88.532000
58.579706	1.310124	88.578000
58.610332	1.324617	88.623000
58.640263	1.351599	88.669000
58.671777	1.380120	88.715000
58.702107	1.402895	88.761000
58.733252	1.428575	88.806000
58.762272	1.467604	88.852000
58.792576	1.509014	88.897000
58.823513	1.536499	88.943000
58.854370	1.558906	88.989000
58.884497	1.575406	89.034000
58.986664	1.615946	89.080000
59.017840	1.627458	89.234000
59.048500	1.653698	89.280000
59.080467	1.694612	89.328000
59.110452	1.734840	89.375000
59.219215	1.790563	89.420000
59.251486	2.009463	89.583000
59.282197	2.046777	89.631000
59.321121	2.087986	89.683000
59.355331	2.153620	89.741000
59.388374	2.208298	89.788000
59.429047	2.273067	89.850000
59.459942	2.316994	89.898000
59.496100	2.352102	89.943000
59.527606	2.389853	89.999000
59.558628	2.410149	90.045000
59.588459	2.422005	90.091000
59.619792	2.422458	90.136000
60.091545	2.299060	90.182000
60.121691	2.414909	90.895000
60.152256	2.431746	90.940000
60.182448	2.444958	90.986000
60.214423	2.457349	91.033000
60.245264	2.467721	91.079000
60.275060	2.479022	91.124000
60.303797	2.485758	91.169000
60.335264	2.495322	91.215000
60.451734	2.529785	91.261000
60.482475	2.537667	91.435000
60.513328	2.542354	91.480000
60.543709	2.549462	91.526000
60.573674	2.559467	91.572000
60.684243	2.572779	91.618000
60.714892	2.646644	91.784000
60.745910	2.675970	91.830000
60.775530	2.706319	91.876000
60.806671	2.736591	91.922000
60.837247	2.764245	91.968000
60.868519	2.794971	92.015000
60.900102	2.820156	92.062000
60.930621	2.840335	92.108000
60.962319	2.858872	92.154000
60.993014	2.875437	92.200000
61.023732	2.890804	92.246000
61.053813	2.907505	92.292000
61.084217	2.922653	92.338000
61.187947	2.992070	92.383000
61.218351	3.020658	92.539000
61.248804	3.057212	92.585000
61.280018	3.096745	92.630000
61.310448	3.142518	92.676000
61.418336	3.184302	92.722000
61.447748	3.323608	92.883000
61.477241	3.361150	92.929000
61.508635	3.397286	92.975000
61.539634	3.432674	93.021000
61.570576	3.469934	93.067000
61.601198	3.508888	93.113000
61.632293	3.546920	93.159000
61.663092	3.583832	93.205000
61.692447	3.622534	93.251000
61.722428	3.661159	93.296000
61.753426	3.690231	93.341000
61.784687	3.714973	93.388000
61.815313	3.734112	93.434000
61.918636	3.816008	93.479000
61.948636	3.836299	93.634000
61.978905	3.858967	93.681000
62.010342	3.890704	93.727000
62.040646	3.929198	93.772000
62.150200	3.978179	93.818000
62.180796	4.167429	93.983000
62.211314	4.211457	94.029000
62.242298	4.254213	94.074000
62.272747	4.297614	94.120000
62.303174	4.337800	94.166000
62.333009	4.377436	94.212000
62.363235	4.420587	94.257000
62.394177	4.464239	94.303000
62.424561	4.508754	94.349000
62.455349	4.553062	94.394000
62.486682	4.596376	94.439000
62.516593	4.633385	94.485000
62.545249	4.665630	94.531000
62.649656	4.758026	94.577000
62.680435	4.789716	94.732000
62.711550	4.823479	94.778000
62.742257	4.858660	94.824000
62.773540	4.891680	94.870000
62.884289	4.927723	94.917000
62.914420	5.051758	95.083000
62.945303	5.081260	95.129000
62.976560	5.107261	95.175000
63.007021	5.130404	95.221000
63.035695	5.155262	95.267000
63.066836	5.180196	95.311000
63.097601	5.206481	95.357000
63.128446	5.235204	95.404000
63.159503	5.267416	95.450000
63.190928	5.295791	95.496000
63.221109	5.325551	95.542000
63.250702	5.355175	95.587000
63.280598	5.383491	95.634000
63.525873	5.618361	95.678000
63.771290	5.672259	96.047000
63.801786	6.183782	96.414000
63.833277	6.249687	96.459000
63.863069	6.329735	96.505000
63.894890	6.417622	96.551000
63.925313	6.509665	96.598000
63.956066	6.590699	96.644000
63.985347	6.671260	96.691000
64.016546	6.747120	96.736000
64.120918	6.957264	96.782000
64.151149	7.010784	96.936000
64.182217	7.060382	96.982000
64.210626	7.105133	97.028000
64.242033	7.140688	97.074000
64.351825	7.173209	97.120000
64.381188	7.293627	97.283000
64.411349	7.323078	97.329000
64.442217	7.350437	97.375000
64.473508	7.374051	97.419000
64.504111	7.399782	97.465000
64.534853	7.427561	97.511000
64.564588	7.458094	97.557000
64.594792	7.489229	97.603000
64.624834	7.528722	97.648000
64.656106	7.576586	97.694000
64.686225	7.635906	97.740000
64.717212	7.690170	97.785000
64.748399	7.727366	97.830000
64.849513	7.864104	97.877000
64.880355	7.910517	98.031000
64.911173	7.960117	98.077000
64.942207	8.022608	98.122000
64.972887	8.083856	98.168000
65.084082	8.143634	98.214000
65.114862	8.374323	98.383000
65.146064	8.453260	98.429000
65.176767	8.530459	98.475000
65.207662	8.607965	98.520000
65.238066	8.689378	98.566000
65.267394	8.764204	98.612000
65.298688	8.837906	98.658000
65.329376	8.909775	98.705000
65.360847	8.986289	98.750000
65.391143	9.065206	98.797000
65.422914	9.133072	98.844000
65.453541	9.200929	98.890000
65.484497	9.276123	98.936000
65.586703	9.561899	98.981000
65.617444	9.645376	99.137000
65.648455	9.731989	99.183000
65.679795	9.821988	99.229000
65.710545	9.907278	99.275000
65.818428	9.994018	99.321000
65.848993	10.297724	99.483000
65.879888	10.377627	99.530000
65.911697	10.454910	99.576000
65.942454	10.529708	99.622000
65.971828	10.605279	99.668000
66.001640	10.685925	99.714000
66.032758	10.769264	99.759000
66.063945	10.858318	99.806000
66.094733	10.947336	99.852000
66.125981	11.029242	99.898000
66.156915	11.105348	99.945000
66.187887	11.180312	99.991000
66.216523	11.256776	100.036000
66.320964	11.550026	100.082000
66.351583	11.636183	100.238000
66.382816	11.726216	100.284000
66.414280	11.811153	100.330000
66.444607	11.890815	100.376000
66.552175	11.965037	100.421000
66.582886	12.204256	100.584000
66.613827	12.271212	100.630000
66.643524	12.338334	100.676000
66.674304	12.404034	100.722000
66.704937	12.468495	100.769000
66.736370	12.531986	100.814000
66.767527	12.608741	100.860000
66.798583	12.704018	100.907000
66.829540	12.804769	100.953000
66.861058	12.917724	101.000000
66.891715	13.053213	101.046000
66.921803	13.185211	101.093000
66.952276	13.307920	101.139000
67.426944	14.190380	101.185000
67.458454	15.102077	101.895000
67.489703	15.222173	101.943000
67.520098	15.343301	101.989000
67.548996	15.473531	102.035000
67.580844	15.598715	102.081000
67.611439	15.722750	102.127000
67.642588	15.836445	102.173000
67.672792	15.950225	102.218000
67.780875	16.398352	102.264000
67.812600	16.519736	102.427000
67.843349	16.628302	102.473000
67.874260	16.728803	102.519000
67.904371	16.827521	102.566000
68.018132	16.924057	102.612000
68.049588	17.354687	102.783000
68.079892	17.452761	102.829000
68.111271	17.545370	102.875000
68.141452	17.632806	102.920000
68.172140	17.725717	102.966000
68.201483	17.828360	103.012000
68.232524	17.937363	103.058000
68.262282	18.045071	103.103000
68.293822	18.148533	103.150000
68.324556	18.253970	103.195000
68.355421	18.359812	103.242000
68.385232	18.462423	103.287000
68.416135	18.560190	103.333000
68.519017	18.897080	103.378000
68.549781	19.005620	103.533000
68.580569	19.116750	103.579000
68.610565	19.227611	103.625000
68.641322	19.337312	103.671000
68.752379	19.447897	103.716000
68.783435	19.880038	103.883000
68.813846	20.000175	103.929000
68.843020	20.120112	103.974000
68.874008	20.237621	104.020000
68.904434	20.348366	104.066000
68.935022	20.454239	104.112000
68.965395	20.558766	104.157000
68.996897	20.664702	104.202000
69.027001	20.776424	104.248000
69.057619	20.888143	104.294000
69.086509	21.004427	104.340000
69.117750	21.126081	104.385000
69.147969	21.256049	104.431000
69.252188	21.765640	104.477000
69.282284	21.908370	104.631000
69.311911	22.033196	104.677000
69.342699	22.143089	104.723000
69.373225	22.252704	104.768000
69.486233	22.368067	104.814000
69.516537	22.808342	104.983000
69.545780	22.932499	105.028000
69.576360	23.059915	105.074000
69.607071	23.190319	105.120000
69.638174	23.319917	105.166000
69.668324	23.447563	105.212000
69.699795	23.573364	105.258000
69.730560	23.699134	105.304000
69.760479	23.827798	105.350000
69.789568	23.955801	105.395000
69.821232	24.081672	105.441000
69.851743	24.207812	105.487000
69.882999	24.334872	105.533000
69.985312	24.793545	105.579000
70.015869	24.960637	105.732000
70.045558	25.136883	105.778000
70.076784	25.302991	105.824000
70.107525	25.470212	105.869000
70.219304	25.642275	105.916000
70.249323	26.243423	106.083000
70.279327	26.426926	106.129000
70.311168	26.621133	106.175000
70.341817	26.828981	106.221000
70.372213	27.039904	106.266000
70.402631	27.249268	106.311000
70.432781	27.459524	106.358000
70.462547	27.671133	106.404000
70.493619	27.878908	106.450000
70.524614	28.077519	106.496000
70.555225	28.273040	106.541000
70.585982	28.477451	106.587000
70.616178	28.687162	106.633000
70.860727	30.312032	106.679000
71.106997	30.525767	107.046000
71.137385	32.475534	107.414000
71.167297	32.720036	107.460000
71.197792	32.963752	107.505000
71.228203	33.214054	107.552000
71.259544	33.462536	107.597000
71.290639	33.710438	107.643000
71.320897	33.950047	107.688000
71.351016	34.178477	107.734000
71.453252	34.923680	107.781000
71.484839	35.147941	107.935000
71.515772	35.372649	107.981000
71.546475	35.596042	108.026000
71.576579	35.818063	108.073000
71.685661	36.044857	108.119000
71.717432	36.876534	108.284000
71.748489	37.109969	108.330000
71.779046	37.342125	108.376000
71.807882	37.560508	108.421000
71.838838	37.768619	108.467000
71.869887	37.964984	108.513000
71.900629	38.159416	108.559000
71.931224	38.344645	108.605000
71.962619	38.513666	108.651000
71.993460	38.677359	108.696000
72.023649	38.849858	108.742000
72.052700	39.035993	108.788000
72.083795	39.225542	108.834000
72.187629	39.830621	108.880000
72.218470	40.008965	109.033000
72.248513	40.192906	109.079000
72.278363	40.378246	109.126000
72.308881	40.567657	109.171000
72.420730	40.757020	109.217000
72.451363	41.480802	109.383000
72.481321	41.698748	109.429000
72.511886	41.923410	109.476000
72.542720	42.154699	109.522000
72.573338	42.392150	109.567000
72.603765	42.627706	109.612000
72.634476	42.869206	109.658000
72.665156	43.116120	109.705000
72.695682	43.368270	109.749000
72.725363	43.628544	109.796000
72.756182	43.886357	109.842000
72.786477	44.136873	109.887000
72.817503	44.380322	109.933000
72.921199	45.127873	109.979000
72.951203	45.341933	110.133000
72.981276	45.546963	110.180000
73.011457	45.751912	110.225000
73.042836	45.956430	110.271000
73.153624	46.166940	110.317000
73.183651	46.918999	110.483000
73.214661	47.124368	110.530000
73.244911	47.333375	110.575000
73.276067	47.534164	110.621000
73.306932	47.740720	110.667000
73.338004	47.952042	110.713000
73.367977	48.171938	110.759000
73.398511	48.389082	110.805000
73.428530	48.608274	110.852000
73.459686	48.828332	110.897000
