Sample	2mm tape 2
date	07/01/2025
	
Temperature (K)	77.00
Angle (deg.)	0.000000
field / T	0.050000
	
		
Approx. trace time (s)	60.0	
		
Current / A	V1  -sample/ uV	time/s
0.002042	-2.534403	0.000000
0.002107	-2.531048	0.046000
0.002018	-2.526958	0.092000
0.001832	-2.520173	0.139000
0.001868	-2.513446	0.185000
0.001994	-2.505257	0.232000
0.001743	-2.498752	0.278000
0.001982	-2.491906	0.325000
0.001910	-2.486203	0.371000
0.001988	-2.478956	0.417000
0.002275	-2.470620	0.463000
0.001922	-2.463468	0.509000
0.001808	-2.453443	0.556000
0.001838	-2.393908	0.603000
0.018536	-2.369649	0.757000
0.049760	-2.347094	0.803000
0.080372	-2.324026	0.850000
0.112036	-2.306127	0.896000
0.216216	-2.292659	0.942000
0.246307	-2.265396	1.098000
0.276777	-2.261056	1.145000
0.308233	-2.252867	1.191000
0.339001	-2.246552	1.237000
0.370222	-2.239248	1.283000
0.401394	-2.231479	1.329000
0.431757	-2.226226	1.375000
0.462398	-2.222968	1.421000
0.492304	-2.219025	1.467000
0.522654	-2.213969	1.513000
0.553358	-2.207750	1.559000
0.584777	-2.202146	1.606000
0.615776	-2.195220	1.652000
0.720297	-2.173089	1.699000
0.750526	-2.161626	1.853000
0.781127	-2.156099	1.899000
0.811760	-2.145037	1.946000
0.842331	-2.130836	1.992000
0.946164	-2.114971	2.038000
0.977761	-2.054177	2.194000
1.008677	-2.037743	2.240000
1.039529	-2.022381	2.287000
1.071189	-2.004628	2.333000
1.101670	-1.991333	2.380000
1.131719	-1.978780	2.426000
1.161995	-1.968437	2.472000
1.193535	-1.959534	2.518000
1.224253	-1.954751	2.564000
1.254948	-1.949393	2.610000
1.285991	-1.946262	2.656000
1.317287	-1.944273	2.703000
1.347733	-1.940984	2.748000
1.821883	-1.912449	2.794000
1.852918	-1.819725	3.506000
1.883645	-1.813523	3.552000
1.914344	-1.807437	3.598000
1.945712	-1.800188	3.645000
1.976358	-1.795069	3.691000
2.007301	-1.787722	3.738000
2.037413	-1.783990	3.784000
2.067716	-1.778211	3.830000
2.176244	-1.770264	3.876000
2.207521	-1.769077	4.039000
2.238861	-1.767036	4.085000
2.269495	-1.767215	4.131000
2.300788	-1.764316	4.178000
2.413297	-1.764818	4.224000
2.444732	-1.762823	4.394000
2.475717	-1.755481	4.440000
2.506554	-1.732691	4.487000
2.537352	-1.701598	4.534000
2.568902	-1.672340	4.580000
2.600580	-1.645406	4.627000
2.631610	-1.630955	4.673000
2.662904	-1.622545	4.720000
2.693449	-1.619819	4.765000
2.724427	-1.619819	4.812000
2.754064	-1.622220	4.858000
2.784645	-1.624820	4.904000
2.816129	-1.633125	4.951000
2.919340	-1.660923	4.996000
2.950709	-1.660301	5.151000
2.981455	-1.654570	5.198000
3.011957	-1.632706	5.244000
3.043250	-1.604162	5.291000
3.146670	-1.574331	5.337000
3.178680	-1.494629	5.494000
3.209475	-1.487187	5.540000
3.240364	-1.483867	5.587000
3.271752	-1.483161	5.633000
3.302803	-1.491098	5.680000
3.333834	-1.502859	5.726000
3.364221	-1.516984	5.773000
3.395019	-1.528491	5.819000
3.425794	-1.542691	5.865000
3.456745	-1.550758	5.912000
3.486677	-1.553284	5.958000
3.518717	-1.548826	6.004000
3.549653	-1.540136	6.050000
3.653450	-1.486148	6.097000
3.683628	-1.466231	6.251000
3.713539	-1.451875	6.298000
3.745037	-1.442184	6.344000
3.776156	-1.433765	6.391000
3.882052	-1.430649	6.437000
3.912634	-1.436749	6.594000
3.943997	-1.439989	6.640000
3.974714	-1.444570	6.687000
4.006238	-1.449500	6.734000
4.037374	-1.451485	6.781000
4.067280	-1.446955	6.827000
4.098860	-1.445136	6.874000
4.129810	-1.439009	6.920000
4.160960	-1.435196	6.967000
4.191350	-1.428505	7.014000
4.222679	-1.422683	7.060000
4.269093	-1.416977	7.106000
4.285397	-1.595135	7.153000
4.387632	-1.439945	7.199000
4.418197	-1.464927	7.353000
4.449161	-1.496059	7.400000
4.480243	-1.526506	7.445000
4.511485	-1.558568	7.493000
4.615959	-1.592334	7.539000
4.647431	-1.674062	7.695000
4.677674	-1.692726	7.741000
4.708495	-1.703802	7.788000
4.738460	-1.715156	7.834000
4.769534	-1.718408	7.880000
4.799947	-1.719875	7.927000
4.831704	-1.719195	7.973000
4.863171	-1.719217	8.020000
4.893893	-1.720496	8.065000
4.925246	-1.719551	8.112000
4.956046	-1.720507	8.158000
4.986705	-1.729965	8.204000
5.016099	-1.735584	8.251000
5.489931	-1.817117	8.297000
5.521735	-1.948657	9.006000
5.552488	-1.959828	9.053000
5.583634	-1.964631	9.099000
5.612689	-1.966124	9.146000
5.644397	-1.967122	9.192000
5.674770	-1.959398	9.239000
5.706531	-1.940899	9.285000
5.736848	-1.918839	9.331000
5.845230	-1.854576	9.378000
5.876564	-1.850371	9.539000
5.907143	-1.850771	9.586000
5.938812	-1.850950	9.633000
5.969261	-1.852012	9.679000
6.081346	-1.852557	9.725000
6.113111	-1.864067	9.894000
6.143368	-1.866288	9.940000
6.174595	-1.868684	9.987000
6.205017	-1.872247	10.033000
6.236888	-1.876714	10.079000
6.267861	-1.880182	10.126000
6.298884	-1.882598	10.172000
6.328227	-1.884542	10.219000
6.359699	-1.884563	10.265000
6.390834	-1.881653	10.312000
6.422431	-1.875157	10.358000
6.452841	-1.871541	10.405000
6.484062	-1.864035	10.450000
6.587267	-1.844285	10.497000
6.617909	-1.846400	10.651000
6.648655	-1.853062	10.698000
6.679221	-1.862563	10.744000
6.710627	-1.878762	10.791000
6.815136	-1.899826	10.837000
6.846546	-1.970516	10.994000
6.877654	-1.992432	11.040000
6.908614	-2.009869	11.087000
6.939013	-2.023775	11.133000
6.969246	-2.034648	11.179000
6.999914	-2.040625	11.225000
7.030726	-2.046257	11.271000
7.061934	-2.049844	11.318000
7.092673	-2.055716	11.364000
7.123936	-2.064556	11.409000
7.153984	-2.075860	11.455000
7.185910	-2.087993	11.502000
7.216863	-2.097931	11.549000
7.318956	-2.122751	11.595000
7.350073	-2.125268	11.750000
7.381377	-2.127543	11.797000
7.412662	-2.127796	11.843000
7.443698	-2.127305	11.889000
7.549066	-2.127031	11.935000
7.580551	-2.140831	12.094000
7.611019	-2.154924	12.140000
7.641034	-2.170981	12.187000
7.671266	-2.185980	12.233000
7.702834	-2.200529	12.279000
7.733706	-2.211594	12.325000
7.764540	-2.222936	12.372000
7.796564	-2.223797	12.418000
7.827593	-2.226896	12.465000
7.859031	-2.225122	12.511000
7.889830	-2.215002	12.557000
7.920928	-2.198583	12.604000
7.950251	-2.183166	12.650000
8.053645	-2.137725	12.695000
8.084589	-2.128876	12.851000
8.115690	-2.118338	12.898000
8.147478	-2.107997	12.945000
8.178434	-2.093138	12.991000
8.282640	-2.082435	13.037000
8.312733	-2.037681	13.194000
8.343745	-2.027749	13.241000
8.374694	-2.022161	13.287000
8.406358	-2.018480	13.333000
8.436883	-2.017390	13.380000
8.467694	-2.016279	13.426000
8.499036	-2.017892	13.472000
8.530592	-2.019275	13.518000
8.561726	-2.021761	13.565000
8.591522	-2.020315	13.612000
8.622244	-2.019675	13.657000
8.652892	-2.019960	13.704000
8.684229	-2.011894	13.751000
9.157851	-1.970747	13.797000
9.187355	-1.951703	14.506000
9.219138	-1.947079	14.553000
9.249743	-1.941098	14.599000
9.281756	-1.936548	14.645000
9.311948	-1.929443	14.692000
9.343553	-1.921435	14.738000
9.374635	-1.914549	14.785000
9.405517	-1.903283	14.831000
9.513717	-1.871101	14.878000
9.543912	-1.857980	15.040000
9.575764	-1.849899	15.086000
9.605657	-1.838462	15.132000
9.635886	-1.826262	15.178000
9.749606	-1.815928	15.224000
9.780241	-1.779010	15.394000
9.811999	-1.772386	15.440000
9.842984	-1.762094	15.487000
9.873654	-1.754580	15.533000
9.903332	-1.744153	15.579000
9.934183	-1.738312	15.626000
9.965103	-1.735721	15.672000
9.996784	-1.726754	15.719000
10.027875	-1.721112	15.765000
10.058282	-1.715630	15.811000
10.089997	-1.708172	15.858000
10.120249	-1.701432	15.904000
10.152141	-1.692442	15.951000
10.253126	-1.667841	15.997000
10.285536	-1.660890	16.152000
10.315919	-1.652367	16.197000
10.347364	-1.648161	16.244000
10.378346	-1.645120	16.291000
10.483129	-1.641660	16.337000
10.514864	-1.625366	16.494000
10.544733	-1.621759	16.540000
10.575607	-1.615971	16.586000
10.605492	-1.613538	16.633000
10.637578	-1.609941	16.680000
10.668330	-1.615254	16.727000
10.699974	-1.619639	16.773000
10.730821	-1.623017	16.819000
10.761990	-1.624505	16.866000
10.793634	-1.624350	16.912000
10.824407	-1.620089	16.959000
10.854622	-1.614993	17.005000
10.885231	-1.611115	17.051000
10.988670	-1.597365	17.098000
11.019580	-1.596296	17.253000
11.050877	-1.594253	17.299000
11.081345	-1.594619	17.346000
11.113471	-1.599077	17.392000
11.216039	-1.599464	17.438000
11.246766	-1.606049	17.594000
11.278329	-1.609235	17.641000
11.308430	-1.608156	17.687000
11.340100	-1.608672	17.733000
11.370820	-1.604352	17.779000
11.402132	-1.603311	17.825000
11.433063	-1.602873	17.872000
11.464392	-1.598718	17.917000
11.494626	-1.594484	17.965000
11.525179	-1.584626	18.010000
11.555175	-1.573240	18.057000
11.586371	-1.559387	18.103000
11.618068	-1.541220	18.150000
11.765587	-1.502823	18.196000
11.796970	-1.517968	18.418000
11.828110	-1.524148	18.464000
11.859414	-1.527606	18.510000
11.961535	-1.525796	18.557000
11.992176	-1.499240	18.711000
12.023329	-1.489327	18.758000
12.054518	-1.486175	18.803000
12.085788	-1.485512	18.850000
12.116621	-1.483283	18.897000
12.147550	-1.482675	18.943000
12.178508	-1.484010	18.990000
12.209449	-1.488529	19.036000
12.239712	-1.492742	19.082000
12.269940	-1.496822	19.129000
12.301121	-1.500782	19.175000
12.332890	-1.507595	19.222000
12.588715	-1.530263	19.268000
12.833884	-1.525302	19.652000
12.864800	-1.499352	20.020000
12.896431	-1.499342	20.066000
12.927812	-1.497386	20.112000
12.958853	-1.496514	20.159000
12.988631	-1.492603	20.206000
13.020158	-1.488538	20.251000
13.050680	-1.487319	20.298000
13.081601	-1.481831	20.345000
13.185223	-1.469272	20.392000
13.216031	-1.466780	20.546000
13.247313	-1.462177	20.593000
13.278935	-1.452213	20.639000
13.309317	-1.433832	20.686000
13.417344	-1.410568	20.732000
13.448255	-1.356674	20.894000
13.479280	-1.348160	20.941000
13.509561	-1.345019	20.987000
13.540567	-1.347865	21.034000
13.570947	-1.349925	21.080000
13.602419	-1.351723	21.126000
13.633981	-1.349579	21.173000
13.664895	-1.345532	21.219000
13.695641	-1.343241	21.265000
13.727259	-1.336252	21.312000
13.758462	-1.331470	21.358000
13.788791	-1.326738	21.405000
13.818043	-1.321087	21.451000
13.922208	-1.311532	21.496000
13.953535	-1.309225	21.652000
13.985106	-1.308469	21.699000
14.016100	-1.308803	21.745000
14.046859	-1.303916	21.792000
14.150377	-1.299608	21.838000
14.180185	-1.274725	21.994000
14.212393	-1.259528	22.041000
14.242652	-1.230608	22.087000
14.274277	-1.192715	22.133000
14.305033	-1.168479	22.179000
14.335883	-1.160834	22.226000
14.367151	-1.153862	22.272000
14.397809	-1.143366	22.318000
14.428406	-1.140209	22.365000
14.458782	-1.141288	22.411000
14.489963	-1.148714	22.457000
14.519894	-1.154249	22.503000
14.551710	-1.159649	22.549000
14.655266	-1.173900	22.595000
14.686001	-1.176605	22.750000
14.715384	-1.178851	22.796000
14.746339	-1.179681	22.842000
14.776941	-1.182677	22.888000
14.883171	-1.181903	22.935000
14.915172	-1.167336	23.094000
14.946153	-1.162533	23.141000
14.977605	-1.155571	23.187000
15.008002	-1.151848	23.234000
15.040103	-1.152885	23.280000
15.070638	-1.154597	23.326000
15.101365	-1.157899	23.372000
15.130788	-1.162156	23.419000
15.162342	-1.165082	23.465000
15.193656	-1.165472	23.511000
15.224314	-1.165019	23.557000
15.255730	-1.169350	23.603000
15.286713	-1.166675	23.649000
15.389292	-1.163071	23.696000
15.420066	-1.160458	23.851000
15.450928	-1.160899	23.897000
15.481834	-1.158561	23.944000
15.513055	-1.158947	23.990000
15.618795	-1.159199	24.037000
15.649868	-1.156191	24.194000
15.681123	-1.152069	24.241000
15.711242	-1.137839	24.287000
15.742867	-1.125842	24.334000
15.772943	-1.112130	24.380000
15.803489	-1.103384	24.425000
15.833945	-1.093399	24.473000
15.865733	-1.083960	24.519000
15.896612	-1.075415	24.565000
15.927662	-1.067080	24.612000
15.958631	-1.065169	24.658000
15.990144	-1.063130	24.704000
16.020947	-1.067660	24.750000
16.493804	-1.139706	24.797000
16.525151	-1.192146	25.507000
16.556002	-1.190060	25.553000
16.587350	-1.182082	25.600000
16.618407	-1.172265	25.646000
16.648015	-1.163193	25.692000
16.678457	-1.147968	25.739000
16.709638	-1.137294	25.785000
16.740458	-1.126608	25.831000
16.848772	-1.100105	25.877000
16.879381	-1.096637	26.039000
16.910123	-1.096416	26.085000
16.941294	-1.099852	26.132000
16.972428	-1.107072	26.179000
17.084981	-1.112727	26.225000
17.115592	-1.113412	26.394000
17.146393	-1.114383	26.441000
17.178024	-1.115001	26.487000
17.209493	-1.119875	26.534000
17.240390	-1.125821	26.580000
17.271927	-1.132367	26.626000
17.303137	-1.141562	26.673000
17.333748	-1.150673	26.719000
17.363427	-1.164023	26.766000
17.394167	-1.179301	26.811000
17.425312	-1.194339	26.858000
17.456351	-1.207278	26.905000
17.487648	-1.221843	26.951000
17.590529	-1.268833	26.997000
17.621023	-1.281288	27.152000
17.652909	-1.292258	27.198000
17.683103	-1.299599	27.245000
17.713610	-1.307525	27.291000
17.818223	-1.315811	27.337000
17.849070	-1.326644	27.494000
17.880745	-1.324485	27.541000
17.912428	-1.316786	27.587000
17.943300	-1.307577	27.634000
17.974260	-1.291638	27.680000
18.005367	-1.275732	27.726000
18.035791	-1.257022	27.773000
18.066187	-1.246235	27.819000
18.096583	-1.240989	27.866000
18.128262	-1.234551	27.912000
18.159093	-1.236060	27.958000
18.190905	-1.236513	28.005000
18.221783	-1.238525	28.051000
18.323731	-1.210015	28.098000
18.355425	-1.190971	28.253000
18.386282	-1.177434	28.299000
18.417054	-1.166267	28.346000
18.447338	-1.154080	28.391000
18.553209	-1.142652	28.438000
18.583539	-1.103278	28.595000
18.615201	-1.093999	28.641000
18.645560	-1.089563	28.687000
18.676299	-1.086272	28.733000
18.706601	-1.086082	28.780000
18.737556	-1.089666	28.826000
18.768655	-1.092852	28.872000
18.799283	-1.089552	28.919000
18.831148	-1.090457	28.965000
18.861734	-1.089887	29.011000
18.893063	-1.092884	29.058000
18.923730	-1.096647	29.104000
18.954917	-1.101584	29.150000
19.057332	-1.150025	29.197000
19.088204	-1.166309	29.352000
19.119335	-1.181555	29.397000
19.149758	-1.191056	29.443000
19.181506	-1.200788	29.490000
19.286644	-1.205538	29.536000
19.317720	-1.262622	29.695000
19.347659	-1.268189	29.741000
19.378842	-1.262801	29.787000
19.408731	-1.251747	29.833000
19.440717	-1.253666	29.880000
19.472027	-1.241441	29.927000
19.503045	-1.220668	29.973000
19.534153	-1.195816	30.019000
19.565544	-1.177592	30.065000
19.596472	-1.164389	30.112000
19.626697	-1.159431	30.159000
19.657917	-1.156861	30.205000
19.687717	-1.161150	30.251000
20.162126	-1.295928	30.298000
20.192800	-1.292194	31.007000
20.221636	-1.296378	31.052000
20.252860	-1.298541	31.099000
20.284091	-1.305555	31.145000
20.315004	-1.306047	31.191000
20.345767	-1.306930	31.238000
20.377394	-1.307201	31.284000
20.408460	-1.308794	31.330000
20.516264	-1.336987	31.376000
20.547903	-1.333288	31.539000
20.578500	-1.330965	31.586000
20.610652	-1.324127	31.632000
20.640873	-1.311417	31.679000
20.752859	-1.298161	31.725000
20.783989	-1.268348	31.895000
20.814657	-1.270099	31.941000
20.846150	-1.273509	31.987000
20.876791	-1.278260	32.033000
20.907765	-1.288503	32.079000
20.937104	-1.299933	32.126000
20.968551	-1.317760	32.172000
20.999346	-1.329622	32.219000
21.030660	-1.342873	32.264000
21.061114	-1.356939	32.311000
21.092666	-1.366963	32.357000
21.124081	-1.376959	32.403000
21.154681	-1.390452	32.449000
21.256888	-1.425808	32.496000
21.287620	-1.420829	32.650000
21.319207	-1.418379	32.697000
21.349614	-1.416142	32.744000
21.380970	-1.410706	32.790000
21.487255	-1.411275	32.836000
21.518429	-1.397379	32.995000
21.549136	-1.396559	33.041000
21.580185	-1.400017	33.088000
21.610611	-1.401056	33.134000
21.640815	-1.404201	33.181000
21.671829	-1.405966	33.227000
21.703045	-1.406250	33.273000
21.734549	-1.400860	33.320000
21.764580	-1.394353	33.366000
21.796222	-1.383938	33.412000
21.827788	-1.365660	33.458000
21.858766	-1.346405	33.505000
21.888585	-1.323434	33.551000
21.991772	-1.236081	33.598000
22.022813	-1.209491	33.752000
22.053841	-1.187945	33.799000
22.084857	-1.174679	33.844000
22.116110	-1.173954	33.891000
22.220691	-1.179207	33.937000
22.250557	-1.199278	34.095000
22.282207	-1.207562	34.141000
22.313325	-1.213466	34.188000
22.344059	-1.219516	34.235000
22.375073	-1.221351	34.281000
22.406590	-1.220177	34.328000
22.438216	-1.213539	34.374000
22.469214	-1.203064	34.421000
22.499795	-1.192369	34.468000
22.531464	-1.179952	34.513000
22.562155	-1.168870	34.560000
22.592394	-1.155825	34.607000
22.622257	-1.141342	34.653000
22.725871	-1.102165	34.699000
22.758064	-1.099315	34.854000
22.789086	-1.104729	34.901000
22.820222	-1.120620	34.947000
22.850944	-1.135258	34.993000
22.954048	-1.151179	35.040000
22.984984	-1.195208	35.196000
23.015791	-1.203995	35.242000
23.046866	-1.210949	35.288000
23.077800	-1.219705	35.335000
23.109146	-1.226279	35.381000
23.140076	-1.228721	35.426000
23.171217	-1.227315	35.473000
23.200910	-1.223741	35.519000
23.232627	-1.218836	35.566000
23.262727	-1.201354	35.612000
23.293663	-1.177026	35.659000
23.324105	-1.148503	35.704000
23.355924	-1.125789	35.751000
23.828537	-1.096740	35.798000
23.859190	-1.068827	36.507000
23.890477	-1.065232	36.553000
23.920450	-1.059684	36.599000
23.952577	-1.052632	36.646000
23.983514	-1.046838	36.692000
24.015114	-1.040301	36.739000
24.045474	-1.035551	36.785000
24.076225	-1.028900	36.831000
24.184838	-1.016043	36.878000
24.215040	-1.016443	37.040000
24.245735	-1.016475	37.086000
24.275835	-1.020195	37.132000
24.307687	-1.018713	37.178000
24.420883	-1.022958	37.225000
24.452186	-1.031292	37.395000
24.483271	-1.036159	37.441000
24.513098	-1.036622	37.487000
24.544833	-1.040754	37.534000
24.574460	-1.043791	37.580000
24.605937	-1.048246	37.627000
24.637603	-1.050474	37.673000
24.668333	-1.048225	37.720000
24.699699	-1.049465	37.767000
24.730244	-1.047743	37.813000
24.762152	-1.045263	37.860000
24.792709	-1.038073	37.905000
24.823312	-1.028751	37.951000
24.925441	-0.982557	37.997000
24.957056	-0.966348	38.153000
24.987644	-0.954998	38.200000
25.019613	-0.940736	38.246000
25.050648	-0.929658	38.293000
25.154753	-0.914967	38.339000
25.185260	-0.867497	38.495000
25.214375	-0.852607	38.540000
25.246319	-0.837613	38.587000
25.277083	-0.822677	38.633000
25.308440	-0.810723	38.679000
25.338885	-0.799390	38.726000
25.370918	-0.784218	38.773000
25.401986	-0.767660	38.819000
25.432758	-0.755884	38.865000
25.462366	-0.746331	38.911000
25.493060	-0.733160	38.957000
25.524176	-0.709891	39.003000
25.554693	-0.689673	39.050000
25.658773	-0.712523	39.096000
25.688972	-0.735772	39.251000
25.721034	-0.749509	39.297000
25.751495	-0.752642	39.343000
25.782017	-0.752895	39.390000
25.887265	-0.751699	39.436000
25.917943	-0.755644	39.595000
25.949505	-0.756787	39.641000
25.980717	-0.755486	39.688000
26.011710	-0.748929	39.734000
26.041778	-0.742410	39.780000
26.073656	-0.736757	39.826000
26.104976	-0.730990	39.873000
26.135187	-0.728043	39.919000
26.165020	-0.734794	39.966000
26.196784	-0.746991	40.012000
26.227905	-0.753764	40.059000
26.258783	-0.756460	40.105000
26.289755	-0.757196	40.152000
26.393255	-0.768118	40.198000
26.425242	-0.772534	40.353000
26.456142	-0.781448	40.400000
26.486171	-0.790435	40.446000
26.516615	-0.798768	40.493000
26.621150	-0.806978	40.539000
26.651807	-0.829723	40.694000
26.682895	-0.833497	40.740000
26.713519	-0.830469	40.785000
26.743237	-0.830469	40.831000
26.773268	-0.826788	40.877000
26.804222	-0.823441	40.924000
26.835463	-0.823599	40.970000
26.866756	-0.824165	41.016000
26.897791	-0.824355	41.062000
26.929173	-0.825055	41.109000
26.960377	-0.824155	41.156000
26.990817	-0.824794	41.202000
27.022538	-0.826830	41.249000
27.496217	-0.846220	41.295000
27.527700	-0.757550	42.007000
27.558634	-0.729322	42.054000
27.589521	-0.706219	42.100000
27.621077	-0.690336	42.146000
27.652311	-0.666669	42.193000
27.682117	-0.640958	42.239000
27.712134	-0.616629	42.286000
27.743730	-0.595083	42.332000
27.851287	-0.576102	42.378000
27.882263	-0.585477	42.540000
27.912993	-0.596071	42.586000
27.943946	-0.609838	42.632000
27.975521	-0.621306	42.679000
28.089052	-0.626833	42.725000
28.119547	-0.552501	42.895000
28.149538	-0.531451	42.941000
28.180273	-0.516011	42.988000
28.211699	-0.505680	43.034000
28.243097	-0.497757	43.080000
28.273797	-0.488435	43.127000
28.304801	-0.477146	43.173000
28.336177	-0.461969	43.220000
28.367564	-0.450622	43.266000
28.398290	-0.441259	43.312000
28.427518	-0.434568	43.359000
28.459072	-0.429934	43.405000
28.489792	-0.426945	43.452000
28.594189	-0.447161	43.497000
28.625359	-0.456204	43.652000
28.655724	-0.467097	43.699000
28.686982	-0.476830	43.745000
28.716356	-0.485523	43.791000
28.821345	-0.494047	43.837000
28.852073	-0.525892	43.995000
28.883150	-0.531756	44.041000
28.913926	-0.530674	44.087000
28.945509	-0.532543	44.134000
28.977004	-0.530748	44.180000
29.007661	-0.521637	44.227000
29.038963	-0.516138	44.273000
29.068984	-0.504535	44.320000
29.099057	-0.496749	44.366000
29.129876	-0.485776	44.412000
29.161044	-0.485565	44.458000
29.192112	-0.486102	44.504000
29.223462	-0.489925	44.550000
29.327554	-0.513847	44.597000
29.357853	-0.516822	44.752000
29.388368	-0.525744	44.799000
29.418806	-0.525596	44.845000
29.449830	-0.529086	44.891000
29.555065	-0.532491	44.937000
29.586277	-0.542708	45.095000
29.616715	-0.545492	45.141000
29.648599	-0.547543	45.187000
29.679360	-0.550337	45.234000
29.711108	-0.553502	45.281000
29.740196	-0.554826	45.327000
29.771016	-0.557515	45.373000
29.802482	-0.557441	45.419000
29.833444	-0.557452	45.465000
29.864245	-0.560407	45.512000
29.895342	-0.564620	45.558000
29.926798	-0.578949	45.604000
29.956829	-0.595933	45.651000
30.057357	-0.674592	45.698000
30.086938	-0.702197	45.852000
30.118994	-0.728086	45.898000
30.150043	-0.755852	45.944000
30.181262	-0.782414	45.991000
30.286315	-0.807125	46.037000
30.316833	-0.870517	46.195000
30.348679	-0.878885	46.241000
30.378468	-0.884004	46.288000
30.409140	-0.882556	46.334000
30.439801	-0.878548	46.381000
30.471467	-0.876821	46.427000
30.502389	-0.875802	46.474000
30.533063	-0.875749	46.520000
30.564073	-0.879944	46.566000
30.595528	-0.882546	46.613000
30.626744	-0.887117	46.659000
30.657698	-0.891180	46.705000
30.687585	-0.890980	46.751000
31.160874	-0.823390	46.798000
31.192486	-0.615892	47.507000
31.223423	-0.577760	47.553000
31.253412	-0.553639	47.599000
31.283324	-0.545262	47.646000
31.314841	-0.550462	47.692000
31.346549	-0.567037	47.739000
31.377588	-0.591678	47.785000
31.408406	-0.615219	47.832000
31.515168	-0.680583	47.878000
31.546908	-0.690702	48.040000
31.578426	-0.696029	48.086000
31.609379	-0.699795	48.133000
31.640261	-0.698589	48.179000
31.751772	-0.694225	48.224000
31.783593	-0.657301	48.395000
31.815176	-0.631541	48.441000
31.846200	-0.599306	48.488000
31.877147	-0.562160	48.535000
31.908194	-0.526447	48.580000
31.938878	-0.504672	48.627000
31.968805	-0.495466	48.673000
32.000257	-0.491313	48.719000
32.030880	-0.484545	48.766000
32.062121	-0.468200	48.813000
32.093037	-0.442726	48.859000
32.123949	-0.409537	48.905000
32.155284	-0.376810	48.952000
32.259163	-0.338446	48.998000
32.290050	-0.345636	49.153000
32.320465	-0.355527	49.200000
32.350327	-0.359816	49.246000
32.381733	-0.356041	49.293000
32.486251	-0.354194	49.339000
32.517519	-0.371902	49.495000
32.548921	-0.384046	49.541000
32.578672	-0.396346	49.587000
32.610116	-0.406831	49.633000
32.640600	-0.419918	49.680000
32.670151	-0.435293	49.725000
32.701123	-0.453989	49.772000
32.732471	-0.474897	49.818000
32.764381	-0.491334	49.865000
32.795280	-0.507803	49.911000
32.826198	-0.521812	49.957000
32.857197	-0.530000	50.003000
32.887647	-0.538366	50.050000
32.990113	-0.548847	50.096000
33.021281	-0.551599	50.251000
33.051815	-0.552596	50.298000
33.083202	-0.553187	50.343000
33.114278	-0.561015	50.390000
33.220697	-0.557400	50.436000
33.251416	-0.463428	50.595000
33.281854	-0.428487	50.641000
33.312230	-0.400445	50.688000
33.342922	-0.380973	50.734000
33.373886	-0.356627	50.780000
33.404440	-0.332718	50.826000
33.436145	-0.311087	50.873000
33.467244	-0.293876	50.919000
33.498428	-0.283633	50.966000
33.528739	-0.276091	51.012000
33.560625	-0.277877	51.058000
33.591374	-0.280120	51.105000
33.621720	-0.282448	51.151000
33.724759	-0.292398	51.198000
33.755604	-0.291027	51.352000
33.787368	-0.289096	51.398000
33.818570	-0.285760	51.445000
33.849538	-0.279093	51.491000
33.954241	-0.273524	51.537000
33.984498	-0.264990	51.695000
34.014341	-0.258257	51.741000
34.046289	-0.245813	51.788000
34.077368	-0.235657	51.834000
34.108213	-0.231339	51.881000
34.139727	-0.225370	51.927000
34.170749	-0.218181	51.973000
34.201844	-0.208542	52.020000
34.232221	-0.201027	52.066000
34.263027	-0.191789	52.112000
34.293431	-0.185085	52.158000
34.324403	-0.180165	52.205000
34.354468	-0.179410	52.251000
34.828580	-0.136638	52.297000
34.860274	0.041441	53.007000
34.890409	0.056940	53.054000
34.921657	0.056750	53.100000
34.951684	0.053698	53.146000
34.983578	0.054746	53.192000
35.014423	0.062844	53.239000
35.045422	0.070631	53.285000
35.075949	0.092745	53.332000
35.184485	0.152158	53.378000
35.215761	0.156503	53.540000
35.246318	0.158431	53.587000
35.277094	0.149634	53.633000
35.306368	0.139556	53.679000
35.420183	0.129939	53.725000
35.451950	0.113329	53.895000
35.482741	0.110696	53.941000
35.514332	0.116057	53.987000
35.543687	0.125242	54.034000
35.575116	0.141213	54.080000
35.605293	0.152738	54.126000
35.636372	0.164661	54.172000
35.666833	0.173029	54.218000
35.698389	0.181469	54.265000
35.729269	0.198243	54.311000
35.760256	0.211557	54.357000
35.790837	0.223485	54.404000
35.822258	0.238750	54.450000
35.924452	0.266231	54.497000
35.955347	0.271371	54.651000
35.986822	0.269857	54.697000
36.016892	0.271993	54.744000
36.048682	0.268187	54.790000
36.155044	0.263479	54.836000
36.185524	0.246147	54.995000
36.216170	0.244435	55.041000
36.245993	0.246673	55.088000
36.277560	0.242921	55.134000
36.308229	0.246157	55.181000
36.339839	0.247661	55.227000
36.370503	0.243468	55.273000
36.401994	0.238820	55.320000
36.433227	0.229298	55.366000
36.464046	0.219294	55.413000
36.494541	0.208131	55.459000
36.525978	0.200650	55.505000
36.555955	0.196634	55.552000
36.659482	0.197663	55.598000
36.690346	0.196812	55.753000
36.721706	0.199869	55.800000
36.752993	0.207818	55.846000
36.783747	0.223590	55.892000
36.887857	0.242259	55.938000
36.917788	0.289270	56.094000
36.948760	0.303377	56.141000
36.979751	0.319080	56.187000
37.011411	0.334002	56.234000
37.042625	0.350925	56.281000
37.073751	0.357432	56.327000
37.104788	0.361624	56.374000
37.136006	0.360921	56.420000
37.167120	0.361339	56.466000
37.197236	0.357619	56.513000
37.227597	0.353986	56.559000
37.258914	0.354678	56.605000
37.289368	0.357063	56.652000
37.393905	0.364045	56.698000
37.424789	0.366378	56.853000
37.455392	0.364896	56.899000
37.486906	0.367966	56.946000
37.516848	0.365925	56.992000
37.620871	0.368543	57.038000
37.651843	0.381280	57.195000
37.682346	0.383877	57.241000
37.714175	0.390752	57.288000
37.745266	0.394579	57.334000
37.776822	0.403945	57.381000
37.806929	0.410833	57.427000
37.838405	0.415855	57.473000
37.868416	0.416695	57.520000
37.899515	0.417859	57.566000
37.929411	0.416193	57.612000
37.961494	0.421238	57.658000
37.992331	0.422065	57.705000
38.023768	0.423366	57.751000
38.496512	0.418338	57.798000
38.526658	0.439804	58.508000
38.558391	0.443056	58.554000
38.589140	0.445236	58.600000
38.620861	0.448235	58.647000
38.651718	0.447156	58.693000
38.682862	0.445960	58.739000
38.713197	0.445395	58.786000
38.743043	0.442867	58.832000
38.852701	0.422776	58.878000
38.881814	0.415258	59.040000
38.912828	0.409521	59.085000
38.943362	0.403859	59.132000
38.974799	0.390477	59.178000
39.089164	0.385094	59.224000
39.118983	0.319910	59.394000
39.149079	0.307204	59.440000
39.178856	0.305198	59.486000
39.210086	0.303463	59.531000
39.240770	0.311565	59.577000
39.271077	0.319815	59.622000
39.301577	0.324295	59.668000
39.332118	0.339239	59.714000
39.361461	0.359725	59.759000
39.393017	0.375058	59.806000
39.423240	0.384096	59.852000
39.454451	0.387195	59.898000
39.486010	0.383182	59.945000
39.588269	0.360754	59.991000
39.620152	0.356622	60.146000
39.650217	0.338617	60.192000
39.681216	0.311712	60.238000
39.711527	0.286832	60.285000
39.821005	0.265033	60.331000
39.852158	0.205703	60.495000
39.883087	0.199944	60.541000
39.914252	0.200029	60.588000
39.944824	0.200682	60.635000
39.976668	0.205264	60.681000
40.007821	0.213985	60.727000
40.038985	0.226358	60.773000
40.069753	0.240630	60.820000
40.100122	0.264910	60.866000
40.130894	0.305188	60.912000
40.161371	0.352398	60.959000
40.192431	0.390172	61.005000
40.223564	0.429562	61.052000
40.327318	0.528308	61.098000
40.358013	0.554722	61.252000
40.388259	0.579071	61.298000
40.417941	0.601626	61.344000
40.449312	0.624249	61.391000
40.555382	0.647801	61.437000
40.586028	0.662158	61.595000
40.617057	0.637060	61.641000
40.647684	0.611922	61.688000
40.678997	0.595733	61.734000
40.710081	0.595009	61.780000
40.740757	0.610216	61.827000
40.769920	0.622672	61.872000
40.801403	0.617355	61.918000
40.832705	0.602309	61.965000
40.863466	0.597411	62.011000
40.894419	0.606609	62.058000
40.925548	0.619719	62.104000
40.956977	0.627633	62.150000
41.059394	0.623599	62.197000
41.089763	0.630682	62.351000
41.120301	0.642787	62.398000
41.152087	0.657039	62.444000
41.183278	0.673143	62.491000
41.288883	0.688677	62.537000
41.320101	0.732655	62.695000
41.351315	0.744299	62.742000
41.382118	0.751541	62.788000
41.412783	0.756513	62.834000
41.443582	0.765164	62.881000
41.474035	0.770058	62.927000
41.504796	0.774819	62.973000
41.535783	0.780641	63.019000
41.566629	0.783702	63.065000
41.596905	0.787487	63.110000
41.627670	0.784616	63.156000
41.658250	0.776513	63.201000
41.687639	0.755399	63.247000
42.164486	0.706123	63.293000
42.195450	0.757922	64.008000
42.226718	0.749219	64.054000
42.257740	0.744015	64.100000
42.288067	0.739875	64.146000
42.317637	0.743983	64.192000
42.348735	0.742859	64.238000
42.379853	0.737289	64.285000
42.411041	0.733621	64.332000
42.518820	0.770047	64.378000
42.549473	0.778059	64.540000
42.581344	0.787012	64.587000
42.612962	0.795853	64.633000
42.643657	0.802451	64.679000
42.755897	0.808959	64.726000
42.785828	0.832583	64.895000
42.816838	0.828480	64.941000
42.848848	0.830139	64.988000
42.879716	0.823819	65.034000
42.910135	0.823734	65.080000
42.942236	0.822842	65.127000
42.972820	0.825448	65.173000
43.004050	0.832562	65.220000
43.033247	0.840648	65.266000
43.065172	0.847852	65.312000
43.095460	0.849780	65.359000
43.126747	0.838004	65.405000
43.157054	0.809114	65.451000
43.260316	0.739604	65.497000
43.291630	0.738311	65.652000
43.322433	0.739204	65.698000
43.352779	0.741443	65.744000
43.383044	0.736327	65.791000
43.489118	0.724081	65.838000
43.520278	0.628508	65.995000
43.551573	0.598600	66.042000
43.582326	0.567435	66.088000
43.612983	0.541866	66.134000
43.644742	0.518747	66.181000
43.675580	0.493530	66.227000
43.706102	0.463267	66.274000
43.736003	0.437743	66.320000
43.767574	0.411642	66.367000
43.798557	0.394422	66.414000
43.830102	0.392328	66.460000
43.860321	0.402991	66.506000
43.892311	0.417304	66.552000
43.994666	0.446195	66.598000
44.025657	0.461642	66.753000
44.056499	0.473628	66.800000
44.087628	0.487752	66.846000
44.118527	0.494398	66.893000
44.222573	0.503196	66.939000
44.254582	0.569141	67.095000
44.285616	0.605959	67.142000
44.316080	0.632734	67.188000
44.345320	0.648163	67.234000
44.376196	0.659158	67.280000
44.407341	0.663824	67.326000
44.438282	0.663677	67.372000
44.469561	0.659692	67.419000
44.500914	0.652302	67.466000
44.532389	0.649129	67.512000
44.562516	0.644926	67.558000
44.594179	0.647625	67.604000
44.624663	0.662467	67.650000
44.727107	0.694477	67.697000
44.758306	0.689642	67.852000
44.789497	0.674614	67.898000
44.819366	0.671125	67.944000
44.851337	0.665689	67.991000
44.957223	0.658754	68.037000
44.987442	0.654769	68.194000
45.017580	0.649557	68.241000
45.047446	0.645321	68.287000
45.080135	0.641519	68.334000
45.111149	0.636083	68.380000
45.142709	0.633792	68.427000
45.173450	0.633391	68.473000
45.204580	0.630007	68.519000
45.235602	0.625120	68.565000
45.266278	0.619382	68.611000
45.296186	0.610652	68.658000
45.326543	0.603504	68.704000
45.358126	0.602442	68.750000
45.833056	0.615160	68.797000
45.863494	0.604805	69.508000
45.893636	0.613542	69.554000
45.924078	0.622424	69.600000
45.955361	0.632016	69.646000
45.985876	0.641184	69.692000
46.017036	0.653879	69.738000
46.048231	0.669613	69.784000
46.079245	0.686261	69.831000
46.188035	0.721299	69.876000
46.218339	0.726347	70.040000
46.249764	0.732074	70.086000
46.280510	0.739939	70.133000
46.310606	0.761064	70.179000
46.424390	0.788085	70.225000
46.455439	0.825860	70.396000
46.486518	0.814884	70.442000
46.517702	0.802610	70.489000
46.548851	0.781819	70.535000
46.579208	0.770891	70.581000
46.611106	0.767001	70.628000
46.641267	0.773298	70.674000
46.671613	0.790765	70.720000
46.702443	0.819909	70.767000
46.733369	0.837761	70.813000
46.764683	0.850743	70.858000
46.795712	0.871055	70.906000
46.826577	0.880735	70.952000
46.930384	0.904468	70.998000
46.959562	0.904029	71.153000
46.990960	0.895920	71.200000
47.022194	0.889390	71.246000
47.053408	0.881954	71.293000
47.157826	0.871698	71.339000
47.188975	0.820480	71.496000
47.220338	0.808708	71.542000
47.250730	0.808792	71.588000
47.281380	0.819418	71.635000
47.311533	0.830936	71.681000
47.343289	0.830936	71.727000
47.373812	0.851670	71.774000
47.405379	0.885287	71.820000
47.436017	0.912545	71.866000
47.467707	0.934668	71.913000
47.498222	0.948623	71.959000
47.529744	0.967112	72.006000
47.559698	0.996577	72.052000
47.662410	1.113874	72.098000
47.693359	1.148696	72.253000
47.724408	1.186946	72.299000
47.756333	1.231350	72.346000
47.786529	1.283036	72.392000
47.891093	1.335071	72.439000
47.922326	1.361013	72.595000
47.952710	1.350904	72.642000
47.983210	1.350064	72.688000
48.013663	1.356410	72.734000
48.045734	1.367145	72.780000
48.076218	1.379079	72.826000
48.107974	1.393119	72.873000
48.138273	1.400502	72.919000
48.170217	1.400471	72.966000
48.200352	1.388548	73.012000
48.230966	1.369955	73.058000
48.260701	1.354846	73.105000
48.292523	1.339399	73.151000
48.395857	1.293794	73.198000
48.427156	1.301041	73.352000
48.457943	1.314736	73.398000
48.488685	1.331567	73.444000
48.519964	1.340007	73.491000
48.623653	1.338234	73.537000
48.655143	1.318825	73.696000
48.686388	1.309785	73.742000
48.717875	1.295608	73.788000
48.748732	1.271951	73.835000
48.780268	1.241689	73.881000
48.811448	1.208186	73.928000
48.842109	1.173712	73.974000
48.873568	1.144436	74.021000
48.903780	1.124099	74.067000
48.934379	1.108722	74.113000
48.964475	1.096688	74.159000
48.996292	1.092591	74.206000
49.026742	1.086009	74.252000
49.499398	0.961183	74.298000
49.530554	0.872137	75.007000
49.561342	0.863590	75.054000
49.592552	0.858629	75.100000
49.623447	0.846098	75.147000
49.655091	0.838130	75.193000
49.685537	0.831122	75.239000
49.717262	0.826561	75.285000
49.747869	0.828052	75.332000
49.855810	0.845092	75.379000
49.886824	0.841790	75.540000
49.915810	0.836422	75.587000
49.947723	0.826415	75.633000
49.978511	0.819659	75.680000
50.092299	0.814223	75.726000
50.123705	0.815474	75.896000
50.154039	0.819940	75.942000
50.185277	0.822086	75.988000
50.215058	0.821623	76.034000
50.246233	0.825734	76.081000
50.276322	0.830044	76.127000
50.307843	0.838235	76.173000
50.339507	0.845669	76.220000
50.370605	0.851449	76.267000
50.401132	0.855317	76.313000
50.432949	0.857645	76.360000
50.464386	0.858411	76.406000
50.494228	0.857184	76.452000
50.597183	0.842448	76.498000
50.627194	0.856512	76.653000
50.658846	0.877682	76.699000
50.690302	0.895773	76.745000
50.720821	0.903951	76.792000
50.826092	0.914408	76.838000
50.856307	0.970234	76.996000
50.887237	0.992066	77.042000
50.917990	1.018134	77.089000
50.948643	1.047973	77.135000
50.979688	1.074787	77.181000
51.010964	1.090739	77.228000
51.042547	1.091666	77.274000
51.073231	1.088522	77.320000
51.104080	1.082123	77.366000
51.134867	1.080535	77.413000
51.165451	1.073977	77.459000
51.195463	1.069973	77.505000
51.226127	1.067017	77.551000
51.329996	1.083061	77.597000
51.361157	1.089638	77.752000
51.392636	1.102411	77.798000
51.422974	1.124481	77.845000
51.453035	1.155395	77.891000
51.558160	1.180661	77.937000
51.589094	1.221617	78.095000
51.620527	1.225286	78.142000
51.651422	1.224267	78.188000
51.682844	1.221765	78.235000
51.713316	1.215890	78.280000
51.744580	1.207482	78.326000
51.775433	1.205445	78.373000
51.804972	1.215616	78.419000
51.836109	1.228400	78.466000
51.867047	1.237939	78.512000
51.898046	1.239907	78.558000
51.928899	1.245802	78.605000
51.959794	1.254506	78.651000
52.063063	1.262806	78.697000
52.093666	1.264934	78.851000
52.124408	1.276973	78.898000
52.155272	1.298983	78.944000
52.185284	1.325966	78.990000
52.291819	1.352485	79.037000
52.323133	1.435283	79.196000
52.354635	1.461204	79.242000
52.385580	1.485880	79.288000
52.416656	1.510988	79.335000
52.448147	1.540290	79.381000
52.477713	1.567859	79.427000
52.508089	1.592992	79.473000
52.537901	1.617427	79.520000
52.569960	1.640822	79.565000
52.600878	1.663074	79.611000
52.632146	1.679637	79.658000
52.663084	1.689507	79.704000
52.694025	1.684240	79.750000
53.167741	1.701097	79.796000
53.198152	1.702739	80.508000
53.230004	1.709356	80.555000
53.260922	1.721719	80.600000
53.292059	1.742327	80.647000
53.322593	1.766426	80.694000
53.353066	1.783243	80.740000
53.383458	1.792453	80.786000
53.414595	1.805663	80.833000
53.522605	1.875304	80.879000
53.553335	1.888735	81.041000
53.584729	1.888654	81.087000
53.615694	1.886460	81.134000
53.646528	1.891440	81.180000
53.760235	1.905535	81.226000
53.790723	1.979563	81.396000
53.820765	2.001573	81.442000
53.852091	2.016433	81.488000
53.883332	2.024521	81.534000
53.913992	2.033211	81.581000
53.944842	2.049134	81.627000
53.976228	2.070681	81.673000
54.006993	2.087663	81.720000
54.038069	2.099792	81.766000
54.068115	2.109063	81.812000
54.099813	2.113687	81.859000
54.129809	2.114832	81.906000
54.161066	2.132815	81.952000
54.264608	2.165549	81.999000
54.295726	2.174337	82.153000
54.326736	2.188042	82.199000
54.357981	2.201358	82.245000
54.388450	2.213376	82.292000
54.492023	2.228977	82.338000
54.523383	2.280316	82.496000
54.554132	2.293930	82.542000
54.586007	2.308829	82.589000
54.617113	2.324989	82.635000
54.648239	2.344653	82.682000
54.679553	2.356804	82.728000
54.710801	2.366210	82.774000
54.741528	2.382912	82.821000
54.771524	2.405477	82.867000
54.802515	2.425393	82.914000
54.833080	2.439184	82.960000
54.864255	2.456053	83.006000
54.895181	2.466910	83.053000
54.998870	2.527963	83.099000
55.029261	2.555629	83.254000
55.060068	2.577703	83.300000
55.090157	2.602031	83.346000
55.121202	2.617404	83.392000
55.226300	2.631457	83.438000
55.256492	2.663750	83.596000
55.288678	2.672347	83.642000
55.319746	2.685269	83.689000
55.351106	2.695691	83.735000
55.381241	2.707551	83.782000
55.412543	2.724372	83.828000
55.443077	2.745669	83.875000
55.473592	2.767700	83.921000
55.504637	2.780204	83.968000
55.536224	2.794926	84.014000
55.567246	2.800383	84.060000
55.598490	2.802663	84.107000
55.629789	2.802727	84.153000
55.732205	2.788056	84.200000
55.763765	2.779933	84.355000
55.794007	2.774570	84.401000
55.825433	2.771426	84.447000
55.855467	2.767155	84.494000
55.960224	2.764001	84.539000
55.991703	2.794612	84.696000
56.022440	2.816475	84.742000
56.051991	2.837337	84.787000
56.082233	2.853640	84.834000
56.113409	2.873039	84.880000
56.144212	2.889188	84.926000
56.175514	2.902600	84.973000
56.206102	2.914694	85.019000
56.237650	2.927224	85.065000
56.268883	2.939530	85.112000
56.299579	2.954372	85.158000
56.329164	2.960626	85.204000
56.360224	2.967896	85.250000
56.835123	3.027434	85.297000
56.867037	3.123860	86.008000
56.897720	3.133719	86.054000
56.927348	3.146437	86.100000
56.958723	3.161299	86.147000
56.989269	3.178276	86.194000
57.020233	3.196258	86.240000
57.050356	3.212603	86.286000
57.082135	3.235660	86.332000
57.190349	3.305193	86.378000
57.221809	3.309164	86.541000
57.252900	3.313668	86.588000
57.283242	3.330566	86.634000
57.314525	3.349631	86.680000
57.426734	3.371494	86.726000
57.457929	3.494156	86.896000
57.488932	3.521304	86.942000
57.519251	3.542422	86.988000
57.551026	3.566697	87.035000
57.582639	3.606862	87.081000
57.613650	3.649399	87.128000
57.643680	3.684051	87.174000
57.675567	3.705145	87.221000
57.704910	3.718609	87.267000
57.736047	3.730771	87.313000
57.766393	3.741227	87.360000
57.798364	3.754252	87.406000
57.828625	3.778781	87.452000
57.932229	3.901803	87.498000
57.963435	3.952082	87.653000
57.992217	4.001002	87.699000
58.023915	4.044425	87.745000
58.054415	4.088911	87.791000
58.160911	4.132383	87.837000
58.191845	4.301052	87.996000
58.222252	4.377580	88.042000
58.253067	4.446085	88.088000
58.284538	4.500110	88.134000
58.315022	4.535930	88.180000
58.344327	4.563730	88.227000
58.376344	4.589594	88.273000
58.407001	4.615410	88.320000
58.437616	4.640813	88.365000
58.468096	4.663651	88.411000
58.499437	4.680972	88.457000
58.530635	4.693320	88.504000
58.561995	4.702736	88.550000
58.663778	4.805938	88.596000
58.694842	4.851068	88.751000
58.725930	4.884278	88.798000
58.757651	4.908932	88.844000
58.788354	4.928342	88.890000
58.894190	4.954305	88.937000
58.925819	5.051401	89.096000
58.955746	5.078696	89.142000
58.986360	5.108818	89.189000
59.016841	5.134999	89.235000
59.047571	5.163378	89.281000
59.078996	5.185396	89.327000
59.109980	5.206767	89.374000
59.141355	5.224313	89.420000
59.171585	5.238669	89.467000
59.203422	5.249172	89.513000
59.234083	5.255494	89.559000
59.265431	5.267586	89.605000
59.294540	5.276854	89.651000
59.398632	5.334069	89.698000
59.429016	5.358552	89.853000
59.460430	5.379787	89.899000
59.492400	5.406106	89.946000
59.523092	5.437951	89.992000
59.627691	5.472163	90.039000
59.657195	5.603353	90.196000
59.689258	5.652954	90.243000
59.719681	5.702026	90.289000
59.751118	5.747778	90.335000
59.781928	5.788955	90.382000
59.813150	5.823429	90.428000
59.844625	5.860773	90.475000
59.875709	5.907147	90.521000
59.906600	5.971269	90.568000
59.936712	6.041663	90.613000
59.967945	6.102012	90.660000
59.998022	6.161382	90.706000
60.029255	6.216026	90.753000
60.499429	6.594456	90.798000
60.529821	7.038765	91.508000
60.559944	7.097794	91.554000
60.590916	7.158418	91.600000
60.622187	7.203958	91.646000
60.653432	7.265747	91.692000
60.684792	7.338900	91.739000
60.715733	7.416276	91.786000
60.746732	7.492436	91.832000
60.854758	7.670011	91.878000
60.885561	7.703813	92.040000
60.916537	7.733406	92.086000
60.946518	7.763986	92.133000
60.977397	7.796030	92.179000
61.091501	7.831791	92.225000
61.122384	7.981834	92.396000
61.154052	8.027260	92.443000
61.185239	8.078519	92.489000
61.215815	8.138669	92.536000
61.246795	8.210937	92.582000
61.276845	8.285437	92.628000
61.307602	8.356364	92.675000
61.338458	8.428547	92.721000
61.370156	8.508802	92.768000
61.401159	8.597228	92.814000
61.432039	8.687823	92.860000
61.463714	8.778023	92.907000
61.494974	8.863778	92.953000
61.596415	9.188668	93.000000
61.626930	9.303113	93.154000
61.657956	9.414048	93.200000
61.689093	9.528535	93.247000
61.720806	9.629104	93.293000
61.825136	9.720795	93.339000
61.856611	9.990182	93.496000
61.887015	10.064750	93.542000
61.916896	10.148651	93.589000
61.947998	10.226985	93.635000
61.979163	10.305117	93.681000
62.009735	10.377634	93.727000
62.040596	10.449966	93.773000
62.071948	10.525584	93.820000
62.102855	10.594111	93.866000
62.134584	10.675957	93.912000
62.164088	10.757990	93.958000
62.195728	10.842600	94.005000
62.225982	10.925060	94.052000
62.329367	11.210986	94.098000
62.360880	11.300598	94.253000
62.391173	11.386093	94.299000
62.422744	11.475828	94.345000
62.453147	11.570243	94.392000
62.558783	11.660182	94.438000
62.588115	11.984531	94.596000
62.619064	12.082768	94.642000
62.650243	12.186863	94.688000
62.681603	12.288798	94.734000
62.712837	12.390536	94.781000
62.743063	12.483676	94.827000
62.774842	12.565121	94.873000
62.805714	12.634758	94.920000
62.836329	12.696100	94.966000
62.865822	12.753724	95.012000
62.897067	12.807044	95.058000
62.928119	12.857196	95.105000
62.959963	12.907677	95.152000
63.063137	13.127349	95.198000
63.094190	13.209103	95.353000
63.125527	13.307008	95.399000
63.155615	13.405169	95.445000
63.186464	13.497532	95.492000
63.291339	13.579763	95.538000
63.322665	13.831622	95.696000
63.353537	13.892585	95.742000
63.384113	13.957318	95.788000
63.415823	14.020222	95.835000
63.446203	14.088737	95.881000
63.477452	14.151506	95.927000
63.507679	14.215255	95.974000
63.538501	14.278759	96.020000
63.568824	14.342730	96.066000
63.600702	14.409803	96.113000
63.631398	14.477770	96.159000
63.663073	14.556629	96.206000
63.693007	14.637099	96.252000
64.166085	15.426511	96.298000
64.198026	16.318841	97.008000
64.229094	16.428252	97.055000
64.260169	16.549071	97.101000
64.290903	16.679568	97.147000
64.322797	16.811322	97.194000
64.353354	16.936891	97.240000
64.384311	17.060832	97.286000
64.413892	17.188849	97.333000
64.521699	17.647649	97.379000
64.553378	17.788813	97.541000
64.583843	17.920403	97.587000
64.614945	18.049387	97.634000
64.645541	18.173015	97.680000
64.759095	18.303144	97.727000
64.790543	18.844559	97.896000
64.821623	18.981672	97.943000
64.851673	19.112160	97.988000
64.881753	19.236282	98.035000
64.913163	19.356342	98.081000
64.944811	19.478472	98.127000
64.975461	19.603995	98.174000
65.006317	19.730471	98.220000
65.037535	19.853945	98.266000
65.068692	19.987834	98.313000
65.099587	20.127098	98.359000
65.129137	20.271609	98.405000
65.159472	20.417195	98.451000
65.263752	20.897894	98.497000
65.295407	21.032922	98.653000
65.326180	21.165281	98.699000
65.356775	21.305806	98.746000
65.388569	21.440179	98.792000
65.492611	21.577105	98.839000
65.523045	22.072530	98.996000
65.554186	22.225007	99.042000
65.584697	22.384808	99.089000
65.616538	22.540442	99.135000
65.647947	22.692489	99.181000
65.679073	22.834034	99.228000
65.709392	22.980125	99.275000
65.740625	23.130164	99.321000
65.771943	23.285079	99.367000
65.802085	23.440246	99.414000
65.831697	23.591589	99.459000
65.862892	23.751441	99.506000
65.894364	23.912883	99.552000
65.997791	24.505121	99.598000
66.028701	24.691384	99.753000
66.059228	24.864145	99.799000
66.090107	25.034124	99.846000
66.120434	25.187072	99.891000
66.225375	25.329873	99.938000
66.256516	25.766913	100.096000
66.288087	25.886887	100.142000
66.319297	26.012642	100.189000
66.349501	26.136375	100.235000
66.380711	26.269517	100.281000
66.411921	26.428269	100.327000
66.442332	26.604697	100.374000
66.472951	26.788018	100.421000
66.503039	26.972003	100.467000
66.534073	27.173162	100.513000
66.565913	27.363550	100.559000
66.597285	27.552176	100.606000
66.627757	27.753587	100.652000
66.731077	28.464779	100.698000
66.761787	28.684446	100.853000
66.790854	28.894653	100.898000
66.822325	29.115713	100.944000
66.853290	29.337516	100.991000
66.959467	29.555032	101.035000
66.990770	30.219573	101.196000
67.021742	30.408505	101.242000
67.053159	30.616003	101.289000
67.084170	30.815843	101.335000
67.114435	31.013464	101.381000
67.143947	31.224593	101.428000
67.175480	31.450474	101.475000
67.206475	31.699054	101.521000
67.238323	31.951136	101.568000
67.269264	32.200652	101.614000
67.300498	32.443413	101.660000
67.330809	32.693662	101.705000
67.361120	32.954360	101.752000
67.834674	34.868238	101.798000
67.865731	36.595967	102.508000
67.897187	36.798904	102.555000
67.927944	36.985020	102.601000
67.958801	37.164466	102.647000
67.988889	37.343182	102.693000
68.019239	37.529744	102.740000
68.050656	37.729930	102.786000
68.080729	37.947847	102.832000
68.189519	38.700261	102.879000
68.220346	38.899406	103.041000
68.251725	39.086676	103.088000
68.282681	39.273636	103.134000
68.313769	39.450406	103.181000
68.426062	39.626803	103.227000
68.456735	40.379146	103.396000
68.487930	40.608062	103.442000
68.518756	40.846292	103.489000
68.549689	41.084766	103.534000
68.580846	41.334350	103.581000
68.611418	41.587726	103.626000
68.642882	41.841111	103.673000
68.672678	42.089597	103.719000
68.704073	42.318174	103.766000
68.734092	42.551400	103.812000
68.765517	42.770383	103.859000
68.796474	42.988668	103.905000
68.828353	43.210337	103.952000
68.932072	43.930911	103.998000
68.962975	44.145265	104.152000
68.993416	44.350383	104.199000
69.023059	44.564691	104.246000
69.054362	44.780052	104.292000
69.159210	45.004544	104.338000
69.190390	45.840437	104.496000
69.221653	46.083840	104.542000
69.253010	46.337199	104.588000
69.284135	46.598979	104.635000
69.315215	46.857939	104.681000
69.345895	47.116554	104.728000
69.376314	47.370683	104.774000
69.406302	47.636303	104.821000
