Sample	2mm tape 2
date	07/01/2025
	
Temperature (K)	77.00
Angle (deg.)	0.000000
field / T	0.000000
	
		
Approx. trace time (s)	60.0	
		
Current / A	V1  -sample/ uV	time/s
0.001369	-2.145250	0.000000
0.001285	-2.126917	0.046000
0.001405	-2.115578	0.092000
0.001405	-2.117980	0.138000
0.001201	-2.126496	0.185000
0.001046	-2.144076	0.231000
0.001112	-2.164503	0.277000
0.000938	-2.191564	0.323000
0.000754	-2.218907	0.370000
0.001381	-2.259065	0.416000
0.001399	-2.271176	0.583000
0.001345	-2.276508	0.629000
0.001142	-2.268651	0.675000
0.001201	-2.250539	0.721000
0.107404	-2.222663	0.767000
0.139214	-2.100548	0.946000
0.170000	-2.071748	0.992000
0.200220	-2.042785	1.038000
0.231395	-2.012564	1.085000
0.262617	-1.979867	1.131000
0.294029	-1.948403	1.178000
0.324407	-1.920482	1.224000
0.355634	-1.895488	1.270000
0.386734	-1.869742	1.316000
0.416930	-1.841487	1.362000
0.447274	-1.814924	1.409000
0.478091	-1.792252	1.455000
0.509256	-1.768689	1.502000
0.983379	-1.676628	1.548000
1.013557	-1.753852	2.258000
1.044241	-1.782609	2.304000
1.075176	-1.805089	2.350000
1.106552	-1.830104	2.397000
1.137209	-1.854016	2.443000
1.168607	-1.883204	2.489000
1.199536	-1.908803	2.535000
1.230576	-1.923204	2.581000
1.332777	-1.925134	2.628000
1.364318	-1.919036	2.783000
1.395132	-1.910087	2.830000
1.425675	-1.897257	2.876000
1.456544	-1.877427	2.921000
1.575285	-1.858122	2.967000
1.606327	-1.857623	3.146000
1.637480	-1.870300	3.192000
1.668214	-1.877682	3.238000
1.699616	-1.882963	3.285000
1.731426	-1.888699	3.331000
1.762128	-1.900448	3.378000
1.791146	-1.916821	3.424000
1.823257	-1.936852	3.471000
1.853588	-1.959704	3.517000
1.884504	-1.986751	3.563000
1.914694	-2.017479	3.609000
1.946562	-2.051710	3.655000
1.977117	-2.083212	3.701000
2.078947	-2.175238	3.747000
2.110663	-2.169652	3.901000
2.141021	-2.155805	3.948000
2.172933	-2.144106	3.995000
2.204209	-2.132078	4.041000
2.309391	-2.123466	4.088000
2.340977	-2.094833	4.246000
2.371296	-2.079235	4.292000
2.401018	-2.056914	4.338000
2.431507	-2.023773	4.383000
2.462490	-1.982001	4.430000
2.493566	-1.938474	4.476000
2.524573	-1.901636	4.522000
2.555583	-1.878657	4.569000
2.586836	-1.881796	4.615000
2.616409	-1.896843	4.661000
2.648096	-1.912547	4.707000
2.677611	-1.923460	4.753000
2.708570	-1.942313	4.798000
2.812139	-2.000819	4.845000
2.842962	-2.020981	4.999000
2.874253	-2.040794	5.046000
2.904679	-2.059273	5.092000
2.935671	-2.075901	5.138000
3.043098	-2.088046	5.185000
3.072761	-2.110646	5.345000
3.102669	-2.119606	5.390000
3.133519	-2.128906	5.437000
3.165173	-2.133125	5.483000
3.195990	-2.137696	5.529000
3.226304	-2.140137	5.575000
3.258084	-2.142772	5.621000
3.288861	-2.149754	5.668000
3.318971	-2.156883	5.714000
3.348492	-2.159941	5.760000
3.379497	-2.160291	5.806000
3.411406	-2.167347	5.852000
3.442135	-2.183340	5.897000
3.545525	-2.265243	5.944000
3.575527	-2.283524	6.099000
3.606511	-2.303349	6.146000
3.636948	-2.323083	6.192000
3.668098	-2.342617	6.238000
3.775943	-2.366051	6.284000
3.806456	-2.429824	6.446000
3.837962	-2.441204	6.492000
3.868940	-2.445625	6.538000
3.899766	-2.434552	6.584000
3.930354	-2.421541	6.630000
3.961943	-2.418248	6.677000
3.992998	-2.420948	6.723000
4.022483	-2.416187	6.769000
4.052821	-2.407184	6.816000
4.084264	-2.391375	6.862000
4.115737	-2.375308	6.908000
4.146663	-2.356094	6.954000
4.177539	-2.334992	7.001000
4.650588	-2.249062	7.047000
4.681612	-1.950532	7.758000
4.712413	-1.912368	7.804000
4.743432	-1.872740	7.850000
4.774949	-1.834877	7.896000
4.805965	-1.803404	7.942000
4.836708	-1.776522	7.989000
4.867321	-1.745175	8.035000
4.897335	-1.710637	8.082000
5.000965	-1.600313	8.128000
5.032375	-1.573718	8.283000
5.064063	-1.551303	8.329000
5.095204	-1.532317	8.375000
5.125459	-1.518913	8.422000
5.243394	-1.508797	8.469000
5.274957	-1.501661	8.646000
5.306278	-1.503494	8.692000
5.337092	-1.508585	8.739000
5.366081	-1.513473	8.785000
5.397416	-1.516125	8.831000
5.428667	-1.512868	8.877000
5.460019	-1.503685	8.923000
5.491016	-1.488256	8.970000
5.522257	-1.476962	9.017000
5.553235	-1.469551	9.063000
5.583661	-1.456349	9.108000
5.614339	-1.440463	9.155000
5.644612	-1.422611	9.201000
5.747784	-1.328338	9.248000
5.778821	-1.291142	9.402000
5.809908	-1.251485	9.448000
5.840158	-1.217778	9.495000
5.872148	-1.189438	9.541000
5.977244	-1.164813	9.587000
6.007883	-1.078812	9.746000
6.038518	-1.058907	9.792000
6.069055	-1.040413	9.838000
6.100099	-1.023193	9.885000
6.131301	-1.006831	9.931000
6.162504	-0.991289	9.977000
6.192668	-0.978778	10.022000
6.224579	-0.968777	10.069000
6.254852	-0.962129	10.116000
6.285699	-0.958099	10.162000
6.315727	-0.953168	10.209000
6.346947	-0.951100	10.255000
6.378126	-0.949330	10.301000
6.481670	-0.960411	10.347000
6.512530	-0.975734	10.502000
6.541952	-0.996402	10.547000
6.573290	-1.017138	10.594000
6.603336	-1.029111	10.640000
6.709706	-1.035473	10.686000
6.740913	-1.089120	10.846000
6.772509	-1.109278	10.892000
6.803431	-1.132266	10.939000
6.834566	-1.157906	10.985000
6.866009	-1.183739	11.032000
6.896580	-1.211134	11.078000
6.927777	-1.239583	11.124000
6.958013	-1.270315	11.171000
6.988726	-1.300114	11.217000
7.018378	-1.329491	11.263000
7.050204	-1.361892	11.309000
7.080879	-1.394289	11.355000
7.112287	-1.426482	11.402000
7.215154	-1.524099	11.448000
7.244867	-1.551399	11.602000
7.276570	-1.574174	11.648000
7.306901	-1.590897	11.695000
7.338107	-1.603095	11.741000
7.443724	-1.611959	11.788000
7.475262	-1.586434	11.946000
7.506125	-1.566408	11.992000
7.537397	-1.550448	12.039000
7.567987	-1.538000	12.085000
7.596998	-1.528531	12.131000
7.628150	-1.526028	12.175000
7.658481	-1.525815	12.222000
7.690104	-1.530281	12.268000
7.720917	-1.537894	12.315000
7.752533	-1.542814	12.361000
7.783650	-1.538520	12.408000
7.814431	-1.532560	12.454000
7.844633	-1.516856	12.501000
8.318623	-1.526676	12.546000
8.350565	-1.519465	13.258000
8.381336	-1.525296	13.305000
8.412467	-1.536113	13.351000
8.442608	-1.550086	13.397000
8.474348	-1.564918	13.444000
8.504402	-1.583598	13.490000
8.535005	-1.617935	13.537000
8.565809	-1.660431	13.583000
8.670271	-1.746952	13.629000
8.701593	-1.740752	13.785000
8.732325	-1.722208	13.831000
8.763771	-1.699974	13.877000
8.793596	-1.685523	13.923000
8.910710	-1.677961	13.970000
8.941697	-1.726102	14.145000
8.972357	-1.748453	14.192000
9.003441	-1.771538	14.239000
9.034283	-1.786872	14.285000
9.065702	-1.784199	14.331000
9.097297	-1.769385	14.377000
9.127949	-1.749807	14.424000
9.158255	-1.732089	14.470000
9.189036	-1.719057	14.516000
9.219414	-1.705940	14.562000
9.250025	-1.686400	14.609000
9.280858	-1.659555	14.654000
9.311819	-1.634944	14.701000
9.415372	-1.594958	14.747000
9.446159	-1.585469	14.901000
9.476764	-1.582720	14.948000
9.506802	-1.570904	14.994000
9.537148	-1.557840	15.039000
9.643336	-1.552171	15.086000
9.674865	-1.521542	15.246000
9.705940	-1.490483	15.292000
9.737493	-1.474408	15.338000
9.768285	-1.472625	15.385000
9.799483	-1.476092	15.431000
9.830394	-1.478436	15.477000
9.860028	-1.476358	15.524000
9.890960	-1.468522	15.570000
9.921734	-1.453453	15.616000
9.952442	-1.436042	15.662000
9.983597	-1.433309	15.709000
10.014912	-1.443867	15.755000
10.046273	-1.449212	15.801000
10.149271	-1.321756	15.847000
10.179530	-1.267107	16.002000
10.210305	-1.224493	16.048000
10.241256	-1.196589	16.095000
10.272519	-1.177686	16.141000
10.377983	-1.165118	16.187000
10.409159	-1.157599	16.346000
10.440104	-1.142091	16.392000
10.470401	-1.123844	16.438000
10.501525	-1.109521	16.484000
10.531404	-1.098970	16.531000
10.562454	-1.087602	16.577000
10.592863	-1.074124	16.623000
10.624811	-1.062459	16.669000
10.655292	-1.051273	16.716000
10.687211	-1.047136	16.762000
10.717508	-1.028899	16.808000
10.748971	-1.005039	16.854000
10.778981	-1.000473	16.900000
10.880975	-1.020160	16.946000
10.912265	-1.028049	17.100000
10.942686	-1.039024	17.147000
10.974695	-1.059140	17.194000
11.005295	-1.082109	17.240000
11.112145	-1.092119	17.286000
11.142832	-1.098842	17.446000
11.171889	-1.101684	17.492000
11.203300	-1.105225	17.538000
11.233735	-1.093064	17.584000
11.265522	-1.077146	17.631000
11.296009	-1.060190	17.677000
11.328113	-1.050053	17.724000
11.358613	-1.044761	17.770000
11.390034	-1.030012	17.816000
11.419837	-1.012938	17.861000
11.451941	-1.005801	17.909000
11.481825	-1.010819	17.955000
11.511952	-1.022163	18.001000
11.987217	-1.036256	18.047000
12.018245	-1.227069	18.758000
12.049125	-1.245085	18.805000
12.079016	-1.265595	18.851000
12.109578	-1.292230	18.897000
12.140668	-1.328843	18.943000
12.171976	-1.370534	18.990000
12.203428	-1.418327	19.036000
12.234051	-1.465414	19.082000
12.337399	-1.548120	19.129000
12.366222	-1.548533	19.283000
12.397861	-1.550139	19.329000
12.428650	-1.553587	19.375000
12.459650	-1.556890	19.421000
12.578559	-1.551249	19.468000
12.609007	-1.453687	19.646000
12.640951	-1.422166	19.692000
12.672087	-1.401095	19.739000
12.703043	-1.393471	19.786000
12.733828	-1.399028	19.832000
12.764459	-1.398561	19.877000
12.794933	-1.403545	19.924000
12.825014	-1.412092	19.970000
12.856239	-1.415135	20.016000
12.886786	-1.412209	20.062000
12.917651	-1.405050	20.108000
12.947785	-1.392347	20.154000
12.980045	-1.371445	20.200000
13.081526	-1.245792	20.247000
13.113176	-1.178925	20.401000
13.143602	-1.118206	20.448000
13.174599	-1.061612	20.494000
13.205518	-1.015856	20.541000
13.311698	-0.983442	20.587000
13.343550	-0.954176	20.746000
13.374207	-0.955120	20.791000
13.404878	-0.964069	20.838000
13.434651	-0.959499	20.885000
13.465756	-0.940251	20.931000
13.496368	-0.924283	20.976000
13.527149	-0.922957	21.023000
13.557622	-0.917676	21.069000
13.588889	-0.906043	21.115000
13.620357	-0.884648	21.161000
13.651095	-0.859484	21.207000
13.681514	-0.837830	21.254000
13.711747	-0.825961	21.299000
13.815079	-0.813275	21.346000
13.846087	-0.817858	21.500000
13.877119	-0.820596	21.546000
13.907810	-0.811182	21.593000
13.939113	-0.790792	21.639000
14.045655	-0.765987	21.685000
14.077067	-0.754839	21.846000
14.107453	-0.764516	21.892000
14.137929	-0.770875	21.939000
14.168459	-0.771287	21.985000
14.199492	-0.770684	22.030000
14.230387	-0.780754	22.077000
14.261348	-0.787015	22.123000
14.292356	-0.782574	22.170000
14.324025	-0.781771	22.216000
14.354734	-0.788189	22.263000
14.384392	-0.792476	22.309000
14.415417	-0.793871	22.355000
14.446445	-0.794761	22.402000
14.550202	-0.829621	22.448000
14.580986	-0.837723	22.602000
14.611794	-0.848652	22.649000
14.642906	-0.870136	22.695000
14.673562	-0.898613	22.742000
14.778652	-0.925290	22.786000
14.809247	-0.996899	22.946000
14.840586	-1.026607	22.992000
14.871190	-1.056436	23.039000
14.902820	-1.080921	23.085000
14.933528	-1.096922	23.131000
14.965032	-1.109319	23.177000
14.995964	-1.133374	23.224000
15.027596	-1.167785	23.270000
15.058037	-1.201414	23.316000
15.087889	-1.227660	23.363000
15.118564	-1.244490	23.409000
15.150083	-1.262909	23.455000
15.180951	-1.282268	23.501000
15.654687	-1.173012	23.548000
15.684814	-1.095482	24.258000
15.716542	-1.092437	24.305000
15.747537	-1.090868	24.351000
15.778600	-1.092798	24.398000
15.808988	-1.101832	24.444000
15.840930	-1.118290	24.490000
15.871610	-1.139913	24.536000
15.903019	-1.151081	24.582000
16.004224	-1.120670	24.629000
16.035582	-1.103201	24.784000
16.066415	-1.089267	24.830000
16.097330	-1.077581	24.875000
16.129005	-1.070964	24.921000
16.247121	-1.060052	24.968000
16.277438	-1.017212	25.145000
16.309342	-1.008846	25.192000
16.340150	-0.994376	25.238000
16.370994	-0.973379	25.285000
16.400151	-0.948968	25.331000
16.432308	-0.933806	25.378000
16.463045	-0.934050	25.425000
16.494469	-0.929468	25.471000
16.524306	-0.931037	25.517000
16.556253	-0.936869	25.563000
16.586908	-0.936890	25.609000
16.618374	-0.933976	25.655000
16.647850	-0.935131	25.702000
16.751271	-1.037212	25.748000
16.782377	-1.067369	25.903000
16.813313	-1.096775	25.949000
16.844539	-1.127726	25.995000
16.874688	-1.160136	26.041000
16.980326	-1.189818	26.087000
17.011028	-1.258751	26.246000
17.041811	-1.267754	26.292000
17.072545	-1.262443	26.339000
17.103029	-1.249496	26.385000
17.133825	-1.242016	26.430000
17.165004	-1.234676	26.477000
17.196132	-1.220696	26.523000
17.226195	-1.204893	26.569000
17.258550	-1.201984	26.615000
17.288767	-1.206607	26.662000
17.318531	-1.216435	26.708000
17.348322	-1.215314	26.754000
17.380037	-1.205159	26.800000
17.484236	-1.283706	26.846000
17.515149	-1.313250	27.001000
17.546005	-1.337056	27.047000
17.575568	-1.359060	27.093000
17.606490	-1.380035	27.140000
17.712537	-1.408092	27.186000
17.744120	-1.451171	27.346000
17.775005	-1.445839	27.392000
17.806202	-1.453271	27.439000
17.836840	-1.475754	27.485000
17.867902	-1.484046	27.531000
17.899308	-1.468987	27.577000
17.930276	-1.449020	27.623000
17.960591	-1.445552	27.670000
17.990874	-1.446177	27.716000
18.021500	-1.441894	27.762000
18.052526	-1.420415	27.809000
18.084385	-1.406259	27.855000
18.114913	-1.407393	27.901000
18.218367	-1.437304	27.946000
18.249263	-1.448500	28.102000
18.279280	-1.454885	28.148000
18.309474	-1.458915	28.194000
18.340894	-1.463018	28.241000
18.447404	-1.466560	28.287000
18.478497	-1.487291	28.446000
18.508950	-1.485817	28.492000
18.539449	-1.464301	28.538000
18.570723	-1.441598	28.584000
18.601516	-1.432505	28.630000
18.631774	-1.427732	28.677000
18.661860	-1.418274	28.723000
18.693397	-1.406588	28.769000
18.724911	-1.397425	28.816000
18.755537	-1.391519	28.862000
18.785816	-1.390862	28.907000
18.817662	-1.396991	28.954000
18.848758	-1.400693	29.001000
19.322357	-1.359113	29.047000
19.353529	-1.368115	29.758000
19.384560	-1.368338	29.805000
19.415623	-1.371381	29.851000
19.446374	-1.381963	29.897000
19.477876	-1.394636	29.944000
19.507417	-1.413236	29.990000
19.538349	-1.439083	30.036000
19.569057	-1.462296	30.082000
19.673022	-1.520301	30.129000
19.703752	-1.523618	30.284000
19.734774	-1.521297	30.330000
19.766088	-1.520545	30.376000
19.796403	-1.518698	30.422000
19.915132	-1.498677	30.469000
19.945860	-1.449168	30.646000
19.975095	-1.458775	30.692000
20.007013	-1.465976	30.739000
20.037418	-1.472793	30.784000
20.068893	-1.479072	30.831000
20.099420	-1.494224	30.877000
20.130578	-1.518921	30.923000
20.161337	-1.549968	30.970000
20.192074	-1.578720	31.016000
20.222562	-1.600142	31.062000
20.253181	-1.618093	31.108000
20.283056	-1.629431	31.154000
20.313849	-1.636202	31.200000
20.418554	-1.679979	31.246000
20.448417	-1.700544	31.401000
20.480515	-1.722472	31.447000
20.510435	-1.742390	31.493000
20.540667	-1.756465	31.539000
20.647202	-1.768993	31.586000
20.677521	-1.772322	31.746000
20.709096	-1.770466	31.792000
20.740518	-1.757352	31.839000
20.771770	-1.733230	31.885000
20.801780	-1.712392	31.931000
20.833823	-1.705514	31.977000
20.864187	-1.703992	32.023000
20.894129	-1.702627	32.069000
20.924187	-1.701274	32.116000
20.955891	-1.698661	32.162000
20.986471	-1.702268	32.208000
21.017994	-1.711186	32.255000
21.048782	-1.721562	32.301000
21.151751	-1.751044	32.347000
21.183350	-1.747554	32.502000
21.213081	-1.747235	32.549000
21.244502	-1.753417	32.595000
21.274654	-1.758240	32.641000
21.380997	-1.754421	32.687000
21.412611	-1.750333	32.846000
21.443275	-1.749859	32.892000
21.474866	-1.749204	32.939000
21.505336	-1.753788	32.985000
21.537056	-1.758092	33.032000
21.567071	-1.758558	33.078000
21.596964	-1.757299	33.123000
21.626772	-1.747851	33.170000
21.659055	-1.736246	33.216000
21.689117	-1.726662	33.261000
21.721380	-1.723256	33.309000
21.751774	-1.725686	33.355000
21.783547	-1.737515	33.402000
21.886119	-1.745290	33.448000
21.916250	-1.733082	33.603000
21.947391	-1.715904	33.648000
21.977567	-1.701338	33.695000
22.009523	-1.685395	33.741000
22.114840	-1.665868	33.787000
22.146162	-1.570724	33.946000
22.176978	-1.540151	33.992000
22.207731	-1.508052	34.038000
22.237837	-1.475995	34.085000
22.268386	-1.448977	34.131000
22.299973	-1.433871	34.177000
22.330636	-1.428124	34.224000
22.361875	-1.426629	34.270000
22.392647	-1.417445	34.316000
22.423928	-1.398559	34.362000
22.454099	-1.379917	34.409000
22.485571	-1.367034	34.455000
22.515845	-1.358975	34.501000
22.990105	-1.279229	34.548000
23.020850	-1.209399	35.258000
23.050806	-1.216634	35.304000
23.082493	-1.213851	35.350000
23.113342	-1.212900	35.397000
23.143509	-1.214941	35.443000
23.174440	-1.211843	35.490000
23.205854	-1.199581	35.536000
23.236682	-1.174281	35.582000
23.340376	-1.084749	35.628000
23.371502	-1.065545	35.784000
23.401679	-1.069129	35.830000
23.432589	-1.099902	35.876000
23.462987	-1.125240	35.923000
23.581616	-1.147495	35.969000
23.612447	-1.265108	36.146000
23.643487	-1.293162	36.193000
23.674605	-1.307145	36.239000
23.705878	-1.306163	36.285000
23.736528	-1.304681	36.331000
23.767826	-1.301339	36.377000
23.798448	-1.289300	36.424000
23.829586	-1.274597	36.470000
23.859643	-1.260529	36.517000
23.890133	-1.245369	36.563000
23.921002	-1.227691	36.609000
23.951728	-1.208361	36.654000
23.982923	-1.189035	36.701000
24.086672	-1.129926	36.747000
24.116486	-1.096446	36.901000
24.147078	-1.074346	36.948000
24.178188	-1.059522	36.995000
24.209233	-1.044421	37.041000
24.315587	-1.027985	37.087000
24.346371	-0.960792	37.246000
24.377476	-0.944016	37.292000
24.408509	-0.933794	37.339000
24.438976	-0.928672	37.385000
24.469304	-0.929000	37.431000
24.500058	-0.932944	37.478000
24.530941	-0.942648	37.524000
24.561665	-0.956509	37.570000
24.592883	-0.975500	37.617000
24.624093	-1.002221	37.663000
24.655252	-1.053351	37.709000
24.685924	-1.130434	37.756000
24.716888	-1.222950	37.802000
24.818821	-1.580065	37.848000
24.849520	-1.705104	38.002000
24.880719	-1.816222	38.048000
24.911916	-1.920870	38.095000
24.943097	-2.020460	38.141000
25.049094	-2.103811	38.187000
25.079204	-2.459769	38.346000
25.110933	-2.545192	38.392000
25.140477	-2.621125	38.438000
25.170245	-2.702914	38.484000
25.200527	-2.780066	38.528000
25.232016	-2.845985	38.574000
25.262350	-2.901739	38.620000
25.293759	-2.950940	38.666000
25.323420	-2.983061	38.712000
25.354266	-2.999445	38.758000
25.383930	-3.001835	38.804000
25.415530	-2.997891	38.851000
25.446152	-2.997584	38.897000
25.549752	-3.078923	38.943000
25.581575	-3.103418	39.098000
25.612297	-3.127214	39.144000
25.642966	-3.142579	39.190000
25.672607	-3.151657	39.237000
25.781614	-3.150692	39.283000
25.813612	-3.104712	39.446000
25.843554	-3.105741	39.493000
25.873781	-3.100163	39.539000
25.904662	-3.099729	39.585000
25.936288	-3.107077	39.631000
25.967115	-3.112465	39.676000
25.998635	-3.105953	39.722000
26.028337	-3.086634	39.769000
26.060218	-3.063695	39.816000
26.090414	-3.047390	39.862000
26.120746	-3.037527	39.908000
26.150318	-3.028346	39.954000
26.182100	-3.014446	40.000000
26.658112	-2.831706	40.046000
26.688903	-2.666923	40.759000
26.718700	-2.662701	40.805000
26.750181	-2.664292	40.851000
26.780380	-2.671483	40.897000
26.811577	-2.682574	40.943000
26.842547	-2.693952	40.990000
26.874472	-2.699042	41.036000
26.905162	-2.696583	41.083000
27.007221	-2.695447	41.129000
27.037590	-2.707917	41.283000
27.068548	-2.722818	41.329000
27.099044	-2.738845	41.375000
27.130930	-2.745112	41.421000
27.249638	-2.748082	41.468000
27.280226	-2.734179	41.646000
27.311390	-2.720239	41.693000
27.342869	-2.704058	41.739000
27.373290	-2.685596	41.785000
27.404292	-2.667040	41.831000
27.434362	-2.655766	41.878000
27.465355	-2.651801	41.924000
27.496361	-2.654198	41.971000
27.527558	-2.653529	42.017000
27.557666	-2.642396	42.063000
27.589644	-2.627379	42.110000
27.620432	-2.609169	42.155000
27.651369	-2.595446	42.201000
27.752839	-2.565977	42.248000
27.783751	-2.545380	42.402000
27.814685	-2.527069	42.448000
27.846508	-2.513791	42.495000
27.877334	-2.500937	42.541000
27.983158	-2.482955	42.586000
28.014071	-2.417571	42.746000
28.044340	-2.401636	42.792000
28.074676	-2.385582	42.838000
28.105709	-2.373441	42.884000
28.136293	-2.365042	42.931000
28.166608	-2.358160	42.977000
28.198318	-2.350355	43.023000
28.229290	-2.345064	43.069000
28.260466	-2.344915	43.116000
28.291317	-2.350705	43.162000
28.321978	-2.360619	43.207000
28.352742	-2.371764	43.254000
28.382231	-2.385189	43.301000
28.485954	-2.421687	43.346000
28.517433	-2.432538	43.501000
28.548349	-2.445506	43.548000
28.579660	-2.459765	43.594000
28.610559	-2.473962	43.640000
28.716487	-2.489618	43.687000
28.746310	-2.535703	43.846000
28.777122	-2.541773	43.892000
28.808310	-2.552838	43.938000
28.839447	-2.566147	43.985000
28.870371	-2.578332	44.031000
28.901366	-2.591808	44.078000
28.933081	-2.602534	44.124000
28.962947	-2.608883	44.170000
28.993379	-2.605307	44.216000
29.024092	-2.594592	44.261000
29.055240	-2.579570	44.309000
29.085611	-2.563005	44.355000
29.116193	-2.548724	44.401000
29.220838	-2.505370	44.447000
29.251708	-2.494771	44.602000
29.283172	-2.484826	44.649000
29.312880	-2.479210	44.695000
29.342786	-2.474979	44.742000
29.448943	-2.470229	44.788000
29.479988	-2.439784	44.946000
29.511615	-2.432601	44.993000
29.542604	-2.424488	45.039000
29.573730	-2.416004	45.085000
29.604350	-2.408297	45.131000
29.635322	-2.397681	45.176000
29.665111	-2.388085	45.224000
29.695941	-2.380566	45.270000
29.726112	-2.379017	45.315000
29.757432	-2.375752	45.361000
29.788231	-2.371817	45.408000
29.819529	-2.367682	45.455000
29.850897	-2.361787	45.501000
30.321184	-2.270522	45.548000
30.352183	-2.181137	46.259000
30.383766	-2.181717	46.305000
30.414123	-2.182470	46.351000
30.445742	-2.174789	46.397000
30.476876	-2.159451	46.444000
30.507706	-2.142971	46.490000
30.537627	-2.126087	46.536000
30.568687	-2.106222	46.583000
30.672037	-2.037333	46.629000
30.703173	-2.019466	46.783000
30.734212	-2.003926	46.830000
30.764994	-1.987286	46.877000
30.796742	-1.971800	46.923000
30.914162	-1.960157	46.969000
30.945100	-1.911144	47.146000
30.976012	-1.896755	47.192000
31.005113	-1.894177	47.239000
31.036349	-1.896311	47.285000
31.067399	-1.892969	47.331000
31.098925	-1.882842	47.377000
31.129170	-1.867594	47.424000
31.161159	-1.849360	47.471000
31.192307	-1.830219	47.517000
31.223963	-1.812648	47.564000
31.254251	-1.795586	47.609000
31.284935	-1.782489	47.656000
31.314743	-1.769119	47.702000
31.418650	-1.701359	47.748000
31.449659	-1.669084	47.903000
31.479705	-1.636826	47.950000
31.511659	-1.608763	47.996000
31.542740	-1.594967	48.042000
31.647592	-1.587236	48.089000
31.678211	-1.586073	48.246000
31.708797	-1.597379	48.292000
31.739556	-1.609154	48.338000
31.770194	-1.626947	48.385000
31.801436	-1.638444	48.430000
31.831728	-1.640422	48.476000
31.863755	-1.631295	48.523000
31.894193	-1.618008	48.568000
31.924504	-1.618821	48.615000
31.953640	-1.629919	48.661000
31.985451	-1.641681	48.708000
32.016492	-1.656608	48.755000
32.048160	-1.671220	48.800000
32.151249	-1.713342	48.847000
32.181399	-1.719670	49.001000
32.212999	-1.722916	49.048000
32.242351	-1.724323	49.094000
32.274027	-1.722663	49.140000
32.380035	-1.718758	49.186000
32.411157	-1.704754	49.346000
32.442064	-1.702616	49.393000
32.473247	-1.701843	49.439000
32.505026	-1.700046	49.485000
32.535806	-1.685458	49.531000
32.566213	-1.664587	49.578000
32.596774	-1.642781	49.624000
32.627585	-1.623666	49.671000
32.657685	-1.604699	49.717000
32.689137	-1.585372	49.763000
32.719713	-1.550552	49.809000
32.751269	-1.516408	49.855000
32.781918	-1.509982	49.902000
32.885196	-1.553081	49.948000
32.915057	-1.545623	50.103000
32.946083	-1.537140	50.149000
32.977766	-1.526865	50.196000
33.008895	-1.511848	50.242000
33.114036	-1.479835	50.288000
33.144723	-1.424751	50.446000
33.176491	-1.421793	50.492000
33.207954	-1.407478	50.539000
33.238319	-1.404858	50.585000
33.267835	-1.417975	50.632000
33.299288	-1.435298	50.678000
33.330340	-1.444735	50.724000
33.360821	-1.453166	50.771000
33.391539	-1.459677	50.816000
33.422880	-1.456612	50.863000
33.454090	-1.446315	50.909000
33.485408	-1.426820	50.955000
33.516050	-1.403479	51.002000
33.989831	-1.171327	51.048000
34.020714	-0.985679	51.759000
34.052320	-0.974025	51.805000
34.083058	-0.970377	51.852000
34.113769	-0.978298	51.898000
34.144668	-0.996484	51.944000
34.174587	-1.014146	51.990000
34.205486	-1.026457	52.036000
34.236277	-1.025991	52.083000
34.340035	-0.943242	52.129000
34.371422	-0.919850	52.284000
34.401906	-0.896582	52.330000
34.432444	-0.871985	52.376000
34.461856	-0.846525	52.422000
34.580861	-0.822565	52.469000
34.612778	-0.771351	52.646000
34.643036	-0.769625	52.693000
34.674334	-0.771203	52.739000
34.705011	-0.771963	52.786000
34.735952	-0.771729	52.831000
34.766851	-0.787417	52.877000
34.797273	-0.817434	52.923000
34.828522	-0.846302	52.970000
34.859241	-0.871911	53.015000
34.888991	-0.898782	53.062000
34.919348	-0.926710	53.108000
34.950716	-0.948819	53.154000
34.982260	-0.959912	53.200000
35.086256	-0.950537	53.246000
35.116656	-0.947823	53.401000
35.147539	-0.951492	53.448000
35.176490	-0.943846	53.494000
35.208181	-0.934080	53.540000
35.314904	-0.941270	53.587000
35.345450	-0.942447	53.746000
35.376668	-0.935628	53.792000
35.407190	-0.930728	53.839000
35.439007	-0.932096	53.885000
35.469845	-0.938078	53.931000
35.500790	-0.945829	53.978000
35.529983	-0.957154	54.024000
35.560997	-0.967377	54.069000
35.591993	-0.973771	54.115000
35.623022	-0.975796	54.162000
35.654271	-0.966147	54.208000
35.685062	-0.949350	54.255000
35.716223	-0.937717	54.301000
35.817917	-0.861269	54.347000
35.848386	-0.856318	54.500000
35.878847	-0.859123	54.547000
35.910675	-0.857577	54.593000
35.941321	-0.849443	54.639000
36.048440	-0.838653	54.686000
36.080161	-0.823368	54.847000
36.110061	-0.821907	54.893000
36.141848	-0.820616	54.939000
36.171971	-0.817667	54.985000
36.202601	-0.810803	55.031000
36.232455	-0.804380	55.078000
36.264583	-0.796273	55.124000
36.295394	-0.790190	55.170000
36.326512	-0.784532	55.217000
36.356516	-0.780861	55.263000
36.388321	-0.780086	55.309000
36.419409	-0.785759	55.354000
36.449858	-0.795928	55.402000
36.552463	-0.849061	55.447000
36.582905	-0.871310	55.603000
36.614718	-0.892765	55.648000
36.645348	-0.914812	55.695000
36.676374	-0.934217	55.741000
36.782744	-0.952138	55.788000
36.813309	-1.001882	55.946000
36.843220	-1.013107	55.993000
36.874450	-1.016882	56.039000
36.904811	-1.010552	56.085000
36.935656	-0.999994	56.131000
36.966647	-0.993759	56.177000
36.997558	-0.984214	56.223000
37.029137	-0.973495	56.269000
37.058826	-0.972477	56.315000
37.089790	-0.970991	56.361000
37.118976	-0.958437	56.407000
37.149925	-0.923307	56.453000
37.180051	-0.870082	56.499000
37.656994	-0.824404	56.545000
37.688658	-0.853810	57.259000
37.720014	-0.854023	57.305000
37.750537	-0.854828	57.352000
37.779741	-0.840852	57.398000
37.811355	-0.825610	57.444000
37.842600	-0.820322	57.490000
37.873614	-0.804875	57.536000
37.904356	-0.784467	57.583000
38.007041	-0.750998	57.629000
38.037990	-0.723717	57.784000
38.068505	-0.713763	57.830000
38.099462	-0.722470	57.877000
38.130572	-0.730636	57.923000
38.248574	-0.728910	57.969000
38.279919	-0.678220	58.147000
38.310914	-0.667606	58.193000
38.341909	-0.665717	58.239000
38.372409	-0.671943	58.284000
38.403742	-0.684091	58.330000
38.434130	-0.700561	58.377000
38.464487	-0.721929	58.424000
38.494606	-0.742853	58.470000
38.525651	-0.754637	58.516000
38.556727	-0.758603	58.562000
38.587645	-0.760095	58.608000
38.618606	-0.762528	58.654000
38.650173	-0.767034	58.701000
38.752137	-0.831396	58.747000
38.782963	-0.854140	58.901000
38.813658	-0.869488	58.947000
38.844642	-0.876936	58.994000
38.875952	-0.878945	59.040000
38.982644	-0.866029	59.086000
39.014016	-0.812068	59.247000
39.044676	-0.818141	59.293000
39.075330	-0.833258	59.338000
39.105875	-0.851295	59.385000
39.136478	-0.871592	59.430000
39.167262	-0.891368	59.477000
39.197754	-0.907760	59.524000
39.229110	-0.920591	59.570000
39.260712	-0.928089	59.617000
39.291411	-0.936942	59.663000
39.322118	-0.944440	59.709000
39.353774	-0.950038	59.756000
39.384696	-0.957791	59.802000
39.486460	-0.959348	59.849000
39.517274	-0.953729	60.003000
39.548523	-0.942308	60.049000
39.579745	-0.935012	60.095000
39.611009	-0.928057	60.142000
39.716552	-0.926104	60.188000
39.747309	-0.948734	60.345000
39.778631	-0.965117	60.393000
39.807206	-0.982329	60.439000
39.838616	-1.001532	60.484000
39.869484	-1.020985	60.529000
39.900467	-1.041579	60.576000
39.931332	-1.059840	60.623000
39.962615	-1.078300	60.669000
39.992838	-1.099212	60.715000
40.022627	-1.124615	60.761000
40.052873	-1.153153	60.807000
40.084786	-1.187237	60.853000
40.115232	-1.220685	60.900000
40.218789	-1.318486	60.946000
40.250299	-1.341901	61.101000
40.280514	-1.361382	61.146000
40.311421	-1.376704	61.193000
40.341759	-1.388326	61.239000
40.448870	-1.397795	61.285000
40.479504	-1.320031	61.446000
40.509827	-1.321799	61.492000
40.541452	-1.312498	61.538000
40.572532	-1.292188	61.585000
40.603922	-1.273487	61.631000
40.633800	-1.265034	61.677000
40.665428	-1.263892	61.723000
40.695878	-1.267563	61.769000
40.726712	-1.276311	61.816000
40.756762	-1.284540	61.862000
40.788076	-1.292496	61.909000
40.819466	-1.303456	61.955000
40.850680	-1.318223	62.002000
41.324750	-1.391452	62.049000
41.354727	-1.291001	62.759000
41.385891	-1.290358	62.805000
41.417093	-1.292526	62.851000
41.447812	-1.293562	62.897000
41.478891	-1.292717	62.942000
41.509909	-1.291721	62.989000
41.541223	-1.289617	63.036000
41.571481	-1.281566	63.082000
41.674293	-1.255514	63.129000
41.704931	-1.251516	63.284000
41.736145	-1.250066	63.330000
41.767232	-1.250583	63.376000
41.798538	-1.252680	63.422000
41.916791	-1.260877	63.469000
41.947663	-1.277421	63.646000
41.978662	-1.277041	63.692000
42.009657	-1.276417	63.738000
42.038962	-1.262389	63.785000
42.070206	-1.233373	63.831000
42.100821	-1.196631	63.878000
42.132746	-1.163226	63.924000
42.163007	-1.132739	63.970000
42.195116	-1.106466	64.016000
42.225539	-1.087188	64.063000
42.256945	-1.070051	64.109000
42.286780	-1.056955	64.155000
42.318009	-1.046660	64.202000
42.419938	-1.005344	64.248000
42.451148	-0.981903	64.402000
42.482816	-0.959753	64.449000
42.514210	-0.942267	64.495000
42.544621	-0.929371	64.541000
42.650081	-0.918046	64.588000
42.681652	-0.895947	64.747000
42.711994	-0.891949	64.793000
42.741898	-0.878605	64.839000
42.773031	-0.869068	64.886000
42.804264	-0.866443	64.932000
42.835867	-0.868357	64.978000
42.866789	-0.871582	65.025000
42.897515	-0.873477	65.071000
42.928502	-0.873085	65.117000
42.959828	-0.868950	65.164000
42.989820	-0.860785	65.210000
43.020696	-0.853305	65.256000
43.051011	-0.849825	65.303000
43.154945	-0.853335	65.349000
43.185929	-0.862834	65.503000
43.216067	-0.875167	65.549000
43.245272	-0.885674	65.595000
43.275502	-0.891230	65.640000
43.383052	-0.888911	65.686000
43.413601	-0.849581	65.847000
43.444807	-0.834982	65.893000
43.475545	-0.821390	65.939000
43.506425	-0.802359	65.985000
43.538215	-0.788241	66.031000
43.568895	-0.771381	66.078000
43.599552	-0.748459	66.124000
43.630808	-0.721146	66.170000
43.661020	-0.702137	66.217000
43.691120	-0.687179	66.263000
43.721919	-0.668771	66.310000
43.753333	-0.653608	66.355000
43.784700	-0.644445	66.402000
43.887997	-0.574447	66.448000
43.918769	-0.547890	66.602000
43.948031	-0.525822	66.649000
43.978800	-0.510818	66.694000
44.010310	-0.499407	66.741000
44.116676	-0.488232	66.787000
44.147732	-0.435259	66.947000
44.179250	-0.408602	66.993000
44.210168	-0.387340	67.040000
44.242312	-0.376667	67.086000
44.272815	-0.371124	67.133000
44.302780	-0.366183	67.178000
44.333311	-0.359789	67.225000
44.363514	-0.352829	67.271000
44.394740	-0.346513	67.318000
44.425554	-0.337396	67.364000
44.457057	-0.325506	67.410000
44.488563	-0.308898	67.457000
44.519850	-0.286505	67.503000
44.991783	-0.248618	67.550000
45.022455	-0.394566	68.259000
45.054518	-0.411522	68.305000
45.085168	-0.432573	68.350000
45.116435	-0.456491	68.397000
45.146159	-0.480723	68.443000
45.178168	-0.502058	68.490000
45.207696	-0.503479	68.536000
45.239094	-0.486726	68.583000
45.342898	-0.470109	68.628000
45.373374	-0.476259	68.783000
45.405237	-0.487764	68.829000
45.436194	-0.508093	68.876000
45.466839	-0.534784	68.923000
45.585337	-0.566213	68.969000
45.615007	-0.688090	69.147000
45.647047	-0.717961	69.193000
45.677451	-0.748034	69.239000
45.708688	-0.777780	69.286000
45.739072	-0.806949	69.333000
45.770878	-0.828814	69.379000
45.801442	-0.843477	69.426000
45.832280	-0.852057	69.472000
45.863448	-0.852014	69.518000
45.894712	-0.851515	69.564000
45.924889	-0.846524	69.609000
45.955319	-0.831704	69.656000
45.985473	-0.804370	69.702000
46.089407	-0.788561	69.749000
46.121312	-0.796422	69.904000
46.151662	-0.790678	69.949000
46.183279	-0.774312	69.996000
46.212715	-0.750564	70.043000
46.317356	-0.725209	70.089000
46.348835	-0.656048	70.247000
46.379891	-0.650883	70.293000
46.410963	-0.651117	70.339000
46.441102	-0.654532	70.385000
46.472777	-0.656428	70.431000
46.503526	-0.655804	70.477000
46.534540	-0.652113	70.524000
46.563714	-0.650745	70.570000
46.595362	-0.657034	70.616000
46.626127	-0.661604	70.663000
46.657164	-0.652665	70.708000
46.687564	-0.638212	70.755000
46.719335	-0.628435	70.801000
46.823515	-0.619886	70.848000
46.853888	-0.606376	71.003000
46.884844	-0.582868	71.049000
46.914552	-0.551230	71.096000
46.946047	-0.515527	71.142000
47.050742	-0.479344	71.189000
47.082593	-0.337142	71.347000
47.113892	-0.292366	71.393000
47.144614	-0.258790	71.439000
47.176086	-0.234037	71.485000
47.206758	-0.212288	71.532000
47.237065	-0.188555	71.577000
47.266969	-0.162777	71.624000
47.298183	-0.133451	71.670000
47.328806	-0.109317	71.716000
47.360377	-0.093962	71.763000
47.390519	-0.084132	71.809000
47.422121	-0.077207	71.856000
47.453170	-0.067621	71.902000
47.555779	-0.020590	71.948000
47.586209	-0.022716	72.102000
47.617312	-0.034586	72.149000
47.648299	-0.054643	72.195000
47.679248	-0.076190	72.242000
47.785649	-0.091119	72.288000
47.816306	-0.043358	72.445000
47.847727	-0.014730	72.492000
47.876947	0.004852	72.539000
47.908023	0.018181	72.584000
47.938642	0.020062	72.631000
47.969548	0.020498	72.677000
48.000325	0.021194	72.724000
48.032195	0.024993	72.770000
48.063506	0.027638	72.817000
48.094213	0.021460	72.863000
48.124727	0.009209	72.908000
48.154147	-0.002543	72.954000
48.184704	-0.013132	73.000000
48.660725	-0.055766	73.046000
48.691958	0.142562	73.759000
48.722604	0.175238	73.805000
48.753791	0.204761	73.851000
48.783741	0.226563	73.898000
48.814752	0.244091	73.944000
48.845470	0.256773	73.991000
48.876830	0.262424	74.037000
48.907960	0.259796	74.083000
49.011260	0.227560	74.130000
49.042512	0.212267	74.284000
49.072055	0.194728	74.331000
49.102747	0.182173	74.377000
49.133411	0.184772	74.422000
49.252117	0.181972	74.469000
49.282701	0.096495	74.647000
49.313539	0.090888	74.692000
49.344653	0.106597	74.739000
49.375982	0.127150	74.785000
49.406662	0.137074	74.831000
49.437861	0.135390	74.878000
49.469298	0.122634	74.924000
49.498610	0.098102	74.970000
49.529759	0.074155	75.017000
49.560554	0.046264	75.063000
49.591822	0.022104	75.109000
49.622598	0.004925	75.156000
49.653428	-0.010700	75.202000
49.757758	-0.054069	75.248000
49.786809	-0.071089	75.403000
49.818380	-0.072712	75.449000
49.848818	-0.077452	75.496000
49.880094	-0.088543	75.542000
49.985845	-0.098362	75.588000
50.016613	-0.073719	75.747000
50.048234	-0.076264	75.793000
50.079276	-0.075489	75.839000
50.110474	-0.075088	75.886000
50.139606	-0.072457	75.932000
50.171005	-0.070877	75.978000
50.201043	-0.071461	76.024000
50.232791	-0.077027	76.071000
50.263125	-0.084472	76.117000
50.294497	-0.094502	76.163000
50.325342	-0.102709	76.208000
50.356038	-0.104238	76.255000
50.387912	-0.096221	76.301000
50.488423	-0.040962	76.348000
50.519933	-0.041238	76.501000
50.550686	-0.041238	76.548000
50.582246	-0.022907	76.594000
50.612254	0.007876	76.640000
50.719081	0.039157	76.686000
50.750848	0.059860	76.847000
50.781770	0.069470	76.893000
50.812523	0.092359	76.939000
50.841409	0.122827	76.986000
50.873211	0.153226	77.032000
50.904129	0.173717	77.078000
50.934940	0.183181	77.124000
50.965401	0.180529	77.171000
50.997625	0.174075	77.217000
51.028617	0.172512	77.263000
51.060230	0.177661	77.310000
51.090123	0.186478	77.356000
51.120956	0.192778	77.403000
51.223580	0.177735	77.449000
51.254883	0.178009	77.604000
51.286312	0.172202	77.650000
51.316577	0.157646	77.697000
51.348602	0.132481	77.743000
51.452486	0.107665	77.789000
51.483239	0.052166	77.947000
51.514253	0.052665	77.993000
51.544749	0.074671	78.039000
51.576282	0.097013	78.085000
51.607004	0.107485	78.132000
51.638187	0.109209	78.178000
51.668230	0.109982	78.224000
51.700058	0.115717	78.270000
51.730462	0.124770	78.317000
51.760746	0.135348	78.361000
51.789843	0.149078	78.409000
51.821634	0.163676	78.453000
51.852683	0.178697	78.501000
52.328369	0.314635	78.547000
52.358899	0.325281	79.259000
52.388158	0.317870	79.305000
52.419418	0.305727	79.351000
52.451082	0.289329	79.397000
52.481773	0.276709	79.444000
52.512457	0.267536	79.490000
52.543936	0.254100	79.536000
52.575193	0.236328	79.583000
52.677336	0.164448	79.629000
52.708255	0.145418	79.784000
52.738700	0.123851	79.830000
52.770168	0.106417	79.875000
52.801447	0.100461	79.923000
52.919872	0.110034	79.968000
52.951075	0.137781	80.147000
52.981405	0.153671	80.193000
53.012708	0.179141	80.239000
53.044091	0.212501	80.286000
53.074729	0.255692	80.332000
53.104433	0.290956	80.379000
53.135101	0.307224	80.424000
53.166431	0.315929	80.471000
53.197145	0.327339	80.517000
53.228010	0.349491	80.563000
53.259589	0.384940	80.610000
53.290334	0.423247	80.655000
53.320864	0.451649	80.701000
53.423239	0.542720	80.748000
53.453657	0.576201	80.903000
53.485006	0.603450	80.949000
53.517019	0.626908	80.995000
53.547211	0.647332	81.042000
53.653758	0.668447	81.088000
53.684591	0.744716	81.247000
53.715521	0.746731	81.293000
53.746336	0.736391	81.340000
53.776539	0.720735	81.386000
53.806958	0.699610	81.432000
53.838495	0.682199	81.479000
53.870147	0.663790	81.525000
53.900873	0.644162	81.571000
53.931280	0.634724	81.618000
53.962433	0.639411	81.664000
53.993655	0.637863	81.710000
54.023597	0.627535	81.756000
54.053397	0.613918	81.802000
54.157700	0.630238	81.848000
54.188334	0.622021	82.002000
54.219648	0.613315	82.049000
54.250870	0.614608	82.095000
54.281231	0.618405	82.142000
54.387190	0.617439	82.188000
54.416948	0.623695	82.347000
54.447847	0.618214	82.392000
54.478811	0.599104	82.439000
54.510206	0.574380	82.486000
54.541143	0.547544	82.532000
54.572265	0.528779	82.579000
54.603260	0.511726	82.625000
54.634474	0.492638	82.672000
54.665607	0.473240	82.718000
54.696430	0.454333	82.765000
54.726357	0.435759	82.810000
54.756122	0.427529	82.856000
54.788205	0.423996	82.903000
54.891693	0.390211	82.949000
54.923368	0.376055	83.104000
54.953760	0.355737	83.151000
54.984770	0.347062	83.197000
55.013760	0.345313	83.243000
55.119277	0.353095	83.289000
55.150825	0.395317	83.447000
55.181382	0.386011	83.493000
55.212892	0.377888	83.539000
55.242385	0.367741	83.584000
55.274437	0.364431	83.631000
55.304794	0.373700	83.677000
55.335263	0.391005	83.723000
55.364767	0.398152	83.769000
55.396531	0.402354	83.816000
55.427653	0.422559	83.862000
55.458986	0.459339	83.908000
55.489639	0.491697	83.955000
55.520861	0.504218	84.001000
55.994680	0.388482	84.047000
56.025548	0.360201	84.759000
56.056605	0.361462	84.805000
56.088341	0.361452	84.852000
56.118637	0.364728	84.897000
56.149932	0.367487	84.943000
56.180043	0.368398	84.990000
56.211219	0.367603	85.036000
56.241035	0.366934	85.083000
56.345096	0.360179	85.129000
56.376897	0.352575	85.284000
56.408027	0.341824	85.331000
56.438761	0.338600	85.377000
56.470075	0.340499	85.423000
56.587916	0.348844	85.470000
56.619145	0.469197	85.647000
56.648519	0.509972	85.693000
56.679214	0.553415	85.739000
56.709960	0.599062	85.785000
56.741159	0.639518	85.831000
56.771512	0.673790	85.877000
56.802864	0.699230	85.924000
56.833744	0.720672	85.970000
56.865104	0.736000	86.016000
56.895496	0.749360	86.063000
56.926518	0.771279	86.109000
56.956437	0.786995	86.155000
56.987432	0.786783	86.201000
57.091190	0.745882	86.247000
57.121493	0.728396	86.401000
57.153011	0.716132	86.448000
57.183591	0.706303	86.494000
57.213899	0.706917	86.540000
57.321171	0.722713	86.585000
57.350887	0.811459	86.747000
57.381628	0.808945	86.793000
57.413123	0.800929	86.840000
57.444348	0.795923	86.886000
57.475128	0.784227	86.931000
57.506181	0.767504	86.978000
57.537138	0.744357	87.023000
57.568144	0.716091	87.070000
57.597979	0.707807	87.117000
57.629850	0.696155	87.163000
57.659600	0.680419	87.210000
57.691080	0.669082	87.256000
57.721794	0.655795	87.302000
57.825467	0.622221	87.348000
57.856658	0.621575	87.503000
57.887538	0.620484	87.550000
57.918783	0.628702	87.596000
57.948510	0.643484	87.643000
58.053935	0.644491	87.689000
58.084841	0.632499	87.847000
58.115813	0.629518	87.893000
58.146881	0.627227	87.938000
58.177650	0.627481	87.985000
58.207830	0.627025	88.031000
58.239448	0.620272	88.078000
58.269513	0.612179	88.124000
58.299732	0.605248	88.170000
58.330462	0.601630	88.217000
58.361884	0.605081	88.263000
58.393405	0.606962	88.310000
58.424542	0.613326	88.356000
58.455238	0.621968	88.402000
58.557958	0.686642	88.448000
58.588730	0.726658	88.603000
58.619602	0.766816	88.649000
58.650217	0.802836	88.696000
58.681039	0.831790	88.742000
58.787970	0.845596	88.788000
58.818577	0.815762	88.947000
58.849810	0.795605	88.993000
58.880048	0.771502	89.039000
58.910310	0.757335	89.085000
58.940798	0.744515	89.131000
58.971620	0.723901	89.177000
59.002745	0.700978	89.224000
59.033322	0.688974	89.270000
59.064793	0.692242	89.317000
59.096257	0.691350	89.363000
59.126756	0.680533	89.409000
59.156887	0.676504	89.455000
59.188650	0.666791	89.501000
59.662263	0.597282	89.548000
59.693580	0.536870	90.259000
59.725036	0.536745	90.305000
59.755228	0.539824	90.352000
59.786469	0.548877	90.398000
59.816466	0.553733	90.444000
59.847557	0.560778	90.491000
59.877576	0.573619	90.536000
59.909182	0.591560	90.583000
60.013370	0.654830	90.630000
60.044342	0.673155	90.784000
60.073162	0.695412	90.831000
60.101403	0.726647	90.877000
60.132859	0.765681	90.923000
60.251572	0.808998	90.969000
60.281184	0.837938	91.146000
60.312521	0.841590	91.193000
60.342997	0.848263	91.239000
60.375356	0.858174	91.286000
60.406044	0.871493	91.333000
60.437204	0.885351	91.379000
60.467761	0.896585	91.424000
60.499540	0.900065	91.471000
60.529978	0.895791	91.518000
60.560105	0.888143	91.564000
60.589817	0.875142	91.610000
60.621696	0.859266	91.657000
60.652157	0.847450	91.702000
60.755899	0.795987	91.748000
60.786567	0.768056	91.902000
60.815565	0.733930	91.948000
60.847378	0.701212	91.995000
60.878281	0.672378	92.041000
60.984493	0.651637	92.088000
61.015454	0.596246	92.247000
61.045961	0.582178	92.292000
61.077209	0.578560	92.339000
61.108266	0.574182	92.385000
61.140283	0.569029	92.432000
61.169319	0.570277	92.478000
61.201021	0.576275	92.524000
61.231071	0.583501	92.571000
61.262434	0.589951	92.617000
61.292849	0.590015	92.664000
61.324428	0.588851	92.710000
61.355462	0.589898	92.756000
61.386511	0.600911	92.802000
61.489139	0.669570	92.849000
61.518755	0.696811	93.002000
61.550068	0.697342	93.049000
61.580937	0.692199	93.095000
61.612389	0.693122	93.142000
61.718413	0.696333	93.188000
61.749704	0.737855	93.347000
61.781333	0.749413	93.394000
61.811775	0.765924	93.440000
61.842943	0.766221	93.486000
61.871875	0.747431	93.531000
61.902931	0.720746	93.578000
61.933607	0.691880	93.624000
61.964952	0.672666	93.670000
61.994856	0.661785	93.717000
62.026731	0.661171	93.763000
62.057857	0.665327	93.808000
62.088955	0.670990	93.856000
62.118610	0.672337	93.902000
62.221975	0.746635	93.949000
62.252932	0.783730	94.103000
62.284346	0.817174	94.150000
62.315594	0.848029	94.196000
62.346666	0.876476	94.242000
62.452356	0.903576	94.289000
62.481822	0.960420	94.447000
62.513328	0.962672	94.493000
62.544265	0.962418	94.540000
62.574469	0.964131	94.585000
62.605614	0.962163	94.631000
62.636713	0.955288	94.678000
62.668384	0.949630	94.725000
62.699394	0.948655	94.772000
62.730831	0.946213	94.818000
62.761684	0.935846	94.865000
62.792595	0.928108	94.910000
62.822291	0.935254	94.957000
62.853521	0.941411	95.003000
63.327674	0.929624	95.050000
63.358535	1.007597	95.759000
63.388193	1.012453	95.805000
63.418643	1.005639	95.851000
63.448850	0.996321	95.898000
63.480579	0.979691	95.944000
63.511636	0.957224	95.989000
63.542500	0.933750	96.036000
63.573453	0.913033	96.082000
63.677126	0.874274	96.129000
63.708190	0.866743	96.285000
63.738651	0.856736	96.331000
63.769281	0.842063	96.377000
63.800526	0.828141	96.424000
63.918832	0.813908	96.470000
63.949619	0.782054	96.647000
63.980814	0.776157	96.692000
64.011195	0.771014	96.739000
64.042113	0.767174	96.785000
64.073650	0.763167	96.830000
64.102516	0.761969	96.876000
64.133185	0.753655	96.923000
64.164814	0.736720	96.969000
64.195724	0.728279	97.016000
64.226243	0.726191	97.062000
64.257207	0.728980	97.108000
64.288306	0.738905	97.154000
64.319463	0.735926	97.200000
64.421345	0.796696	97.247000
64.452252	0.807227	97.401000
64.483558	0.815932	97.447000
64.514223	0.832233	97.494000
64.545948	0.858936	97.540000
64.653001	0.889506	97.586000
64.684012	0.915953	97.747000
64.715483	0.881065	97.793000
64.746056	0.854123	97.840000
64.776444	0.832350	97.886000
64.806248	0.808552	97.932000
64.837420	0.781078	97.978000
64.867531	0.751439	98.024000
64.899172	0.720353	98.070000
64.930113	0.706938	98.116000
64.960685	0.685146	98.163000
64.992065	0.658901	98.209000
65.022407	0.659676	98.255000
65.052464	0.667639	98.301000
65.155768	0.668117	98.347000
65.187570	0.671584	98.502000
65.217474	0.682866	98.547000
65.249138	0.706197	98.594000
65.279487	0.727368	98.640000
65.386987	0.731387	98.686000
65.417152	0.725183	98.846000
65.445734	0.733909	98.891000
65.477275	0.746200	98.937000
65.507609	0.757484	98.983000
65.539419	0.769795	99.030000
65.568939	0.783305	99.076000
65.601601	0.793293	99.122000
65.632327	0.801946	99.169000
65.662815	0.810567	99.215000
65.691920	0.809624	99.261000
65.722800	0.799932	99.307000
65.754025	0.785669	99.353000
65.785128	0.775775	99.400000
65.889454	0.767185	99.446000
65.919450	0.770219	99.600000
65.950883	0.770241	99.647000
65.981317	0.756603	99.693000
66.012151	0.744832	99.740000
66.119412	0.742034	99.786000
66.149746	0.779561	99.947000
66.180941	0.787684	99.993000
66.211783	0.793908	100.040000
66.242808	0.803897	100.086000
66.273250	0.815562	100.132000
66.304960	0.812699	100.178000
66.336208	0.808785	100.225000
66.367081	0.810079	100.271000
66.395740	0.822848	100.317000
66.427526	0.828827	100.363000
66.458445	0.814162	100.410000
66.489532	0.795573	100.456000
66.519674	0.784503	100.503000
66.993851	0.738247	100.549000
67.025276	0.817290	101.259000
67.056594	0.840740	101.306000
67.086967	0.871577	101.352000
67.117954	0.891569	101.398000
67.149326	0.907066	101.445000
67.180336	0.936608	101.491000
67.211308	0.963126	101.538000
67.242380	0.972477	101.583000
67.343771	0.965993	101.630000
67.374843	0.965073	101.784000
67.405991	0.965759	101.830000
67.437217	0.971619	101.877000
67.467981	0.978095	101.923000
67.586668	0.978315	101.968000
67.617747	0.998151	102.147000
67.648773	1.007955	102.193000
67.679261	1.005312	102.240000
67.709549	0.999768	102.286000
67.740475	1.000889	102.332000
67.771616	1.008739	102.379000
67.802811	1.028457	102.425000
67.833637	1.061963	102.472000
67.864893	1.082758	102.517000
67.896204	1.075367	102.564000
67.927544	1.060945	102.611000
67.958516	1.045452	102.657000
67.989711	1.037595	102.704000
68.091602	1.022268	102.749000
68.122251	1.026139	102.905000
68.153154	1.031048	102.951000
68.183864	1.042281	102.997000
68.215059	1.057754	103.043000
68.320676	1.073829	103.089000
68.351863	1.123033	103.247000
68.381859	1.138536	103.294000
68.411932	1.160905	103.340000
68.443266	1.175995	103.386000
68.474338	1.186844	103.432000
68.504887	1.201807	103.479000
68.536097	1.216928	103.525000
68.566969	1.226557	103.571000
68.598356	1.234955	103.617000
68.628014	1.246248	103.663000
68.657788	1.262921	103.709000
68.689159	1.275154	103.755000
68.720838	1.273005	103.802000
68.824442	1.248899	103.848000
68.855437	1.258416	104.003000
68.886232	1.274410	104.049000
68.917181	1.295313	104.096000
68.947254	1.315340	104.141000
69.053271	1.334792	104.188000
69.083820	1.377480	104.347000
69.115460	1.385404	104.394000
69.146479	1.387603	104.440000
69.177535	1.382041	104.486000
69.207670	1.390661	104.532000
69.238795	1.399408	104.577000
69.269982	1.399928	104.624000
69.300801	1.406421	104.671000
69.330989	1.420069	104.717000
69.361784	1.432095	104.764000
69.393271	1.438643	104.810000
69.423967	1.441626	104.857000
69.454693	1.445360	104.903000
69.558120	1.462752	104.949000
69.588915	1.459291	105.103000
69.618419	1.459407	105.149000
69.649983	1.482841	105.196000
69.680917	1.514620	105.242000
69.786787	1.541407	105.289000
69.818174	1.629502	105.447000
69.848485	1.663901	105.493000
69.880617	1.701354	105.540000
69.910844	1.738610	105.586000
69.941655	1.770431	105.632000
69.971029	1.794723	105.678000
70.002346	1.811065	105.724000
70.032942	1.830435	105.771000
70.064851	1.853145	105.818000
70.095401	1.874948	105.864000
70.126388	1.893373	105.910000
70.156845	1.913652	105.955000
70.188348	1.934182	106.002000
70.661879	2.077904	106.048000
70.693366	2.238685	106.760000
70.724030	2.260103	106.806000
70.755702	2.279187	106.852000
70.786136	2.298206	106.899000
70.817653	2.313229	106.945000
70.848203	2.330152	106.991000
70.877984	2.345207	107.037000
70.907342	2.360678	107.084000
71.012406	2.410103	107.130000
71.043639	2.421834	107.285000
71.074757	2.430771	107.331000
71.106013	2.438756	107.377000
71.135556	2.442840	107.423000
71.254051	2.441747	107.470000
71.285145	2.428353	107.647000
71.315326	2.424535	107.693000
71.346728	2.414431	107.740000
71.377109	2.401832	107.786000
71.408142	2.387486	107.832000
71.438684	2.375281	107.878000
71.470417	2.364496	107.924000
71.500720	2.357263	107.971000
71.532422	2.348781	108.017000
71.562841	2.342884	108.063000
71.593698	2.342228	108.110000
71.623525	2.338889	108.156000
71.655050	2.339841	108.203000
71.759023	2.347083	108.249000
71.789595	2.337040	108.403000
71.821113	2.340520	108.450000
71.850924	2.348834	108.496000
71.881835	2.362693	108.542000
71.986730	2.383022	108.589000
72.018140	2.417559	108.747000
72.049050	2.433879	108.793000
72.079861	2.447830	108.840000
72.111755	2.460777	108.886000
72.142635	2.473947	108.933000
72.173714	2.482038	108.979000
72.204071	2.488199	109.025000
72.235689	2.490522	109.072000
72.266123	2.489651	109.118000
72.295919	2.487636	109.164000
72.327283	2.487413	109.211000
72.358063	2.487732	109.256000
72.389020	2.490341	109.303000
72.492846	2.484318	109.349000
72.524756	2.478284	109.505000
72.554237	2.472760	109.551000
72.583696	2.466555	109.597000
72.615375	2.463503	109.643000
72.721107	2.463958	109.690000
72.752186	2.470808	109.847000
72.782736	2.483140	109.893000
72.813331	2.488803	109.939000
72.844764	2.480119	109.985000
72.875667	2.463756	110.032000
72.906447	2.448263	110.078000
72.936328	2.434495	110.125000
72.967538	2.419965	110.171000
72.998933	2.403095	110.217000
73.029859	2.381197	110.263000
73.060892	2.353372	110.310000
73.091995	2.323902	110.356000
73.123297	2.291786	110.403000
73.224588	2.217121	110.449000
73.254838	2.197318	110.603000
73.286286	2.178540	110.649000
73.317212	2.166482	110.696000
73.348622	2.164397	110.742000
73.455161	2.175124	110.788000
73.486071	2.170523	110.947000
73.516436	2.157650	110.993000
73.547716	2.157193	111.040000
73.578519	2.168015	111.086000
73.608661	2.189543	111.133000
73.638819	2.216042	111.179000
73.670497	2.237330	111.225000
73.701738	2.256148	111.272000
73.732488	2.270663	111.318000
73.763206	2.279049	111.364000
73.794470	2.281726	111.411000
73.825941	2.280350	111.457000
73.855915	2.274903	111.502000
74.329807	2.173771	111.550000
74.360080	2.188529	112.260000
74.391936	2.193721	112.306000
74.422093	2.203644	112.352000
74.452896	2.216528	112.398000
74.482739	2.236349	112.445000
74.514602	2.246417	112.491000
74.545512	2.254099	112.538000
74.577168	2.271307	112.584000
74.680603	2.358356	112.631000
74.709915	2.387761	112.785000
74.742340	2.424441	112.831000
74.771598	2.459048	112.878000
74.802847	2.492515	112.924000
74.920880	2.520657	112.970000
74.951552	2.642803	113.147000
74.983055	2.683344	113.194000
75.013496	2.716866	113.239000
75.045160	2.747448	113.285000
75.074964	2.777812	113.332000
75.108003	2.807089	113.377000
75.137561	2.839613	113.424000
75.167796	2.878387	113.470000
75.197638	2.921588	113.516000
75.229509	2.964397	113.562000
75.260619	3.004796	113.608000
75.291545	3.038222	113.655000
75.322925	3.064455	113.701000
75.424799	3.175618	113.747000
75.456209	3.212952	113.902000
75.487158	3.250479	113.948000
75.518284	3.288198	113.995000
75.548165	3.325467	114.040000
75.655011	3.363664	114.087000
75.686936	3.468369	114.247000
75.717585	3.479625	114.294000
75.748980	3.480884	114.340000
75.778815	3.475279	114.386000
75.809848	3.464606	114.431000
75.840052	3.456955	114.478000
75.871039	3.461314	114.524000
75.901566	3.469058	114.571000
75.933337	3.469196	114.618000
75.964170	3.479901	114.664000
75.995327	3.495090	114.710000
76.025523	3.503944	114.756000
76.057425	3.506832	114.802000
76.159607	3.588185	114.848000
76.190848	3.616693	115.004000
76.221781	3.620848	115.050000
76.251870	3.611118	115.096000
76.284156	3.608958	115.142000
76.389857	3.613570	115.189000
76.420468	3.674473	115.346000
76.451739	3.716487	115.393000
76.480491	3.764042	115.439000
76.511939	3.802979	115.485000
76.542358	3.832787	115.532000
76.574175	3.858786	115.578000
76.603903	3.884300	115.625000
76.636165	3.916025	115.671000
76.667022	3.953084	115.717000
76.698425	3.996445	115.763000
76.728782	4.040017	115.810000
76.760092	4.084777	115.856000
76.790357	4.127757	115.903000
76.893446	4.264990	115.949000
76.924610	4.288702	116.104000
76.955774	4.304800	116.150000
76.986631	4.322192	116.196000
77.017657	4.349303	116.243000
77.123035	4.370756	116.289000
77.153193	4.449145	116.447000
77.183266	4.483227	116.493000
77.213984	4.519663	116.539000
77.244995	4.555483	116.585000
77.276866	4.588675	116.631000
77.307584	4.624628	116.678000
77.339163	4.669768	116.724000
77.369375	4.725957	116.770000
77.400423	4.783817	116.817000
77.430174	4.839380	116.863000
77.461392	4.883152	116.910000
77.492218	4.908486	116.956000
77.523220	4.926778	117.002000
77.997851	5.160376	117.049000
78.028784	5.464848	117.760000
78.058511	5.517799	117.806000
78.090275	5.573578	117.852000
78.120771	5.632552	117.898000
78.151597	5.698765	117.944000
78.182830	5.759821	117.991000
78.214217	5.809959	118.037000
78.245120	5.861738	118.083000
78.347425	6.066094	118.128000
78.378474	6.122122	118.284000
78.409223	6.173140	118.331000
78.440095	6.217071	118.377000
78.470975	6.262212	118.423000
78.589669	6.310111	118.469000
78.620088	6.503761	118.647000
78.651613	6.536591	118.692000
78.682977	6.567713	118.739000
78.713104	6.593597	118.786000
78.743338	6.622202	118.832000
78.773880	6.652452	118.877000
78.805220	6.684954	118.924000
78.835993	6.721178	118.970000
78.867026	6.758387	119.017000
78.898452	6.800471	119.064000
78.930046	6.847807	119.110000
78.961033	6.892814	119.156000
78.992205	6.932100	119.203000
79.094487	7.129925	119.250000
79.125298	7.192675	119.405000
79.156547	7.261758	119.451000
79.187480	7.343377	119.498000
79.218260	7.433646	119.544000
79.323854	7.531712	119.590000
79.355079	7.836290	119.747000
79.386136	7.901207	119.793000
79.415594	7.974553	119.840000
79.446274	8.053875	119.885000
79.476985	8.131805	119.932000
79.508318	8.206559	119.978000
79.539098	8.273600	120.024000
79.570385	8.324183	120.071000
79.601065	8.364379	120.117000
79.631899	8.397219	120.163000
79.662502	8.427877	120.209000
79.692099	8.455373	120.255000
79.723463	8.495674	120.302000
79.826244	8.707248	120.348000
79.858438	8.776585	120.502000
79.888987	8.837427	120.549000
79.920413	8.913078	120.594000
79.950055	9.002892	120.641000
80.056241	9.095914	120.687000
80.087812	9.373408	120.847000
80.118008	9.422506	120.893000
80.149802	9.470959	120.940000
80.179253	9.509588	120.986000
80.210832	9.541537	121.032000
80.241950	9.582595	121.078000
80.272868	9.635464	121.124000
80.303064	9.707113	121.170000
80.334413	9.790859	121.217000
80.364501	9.885671	121.263000
80.395043	9.970541	121.309000
80.425930	10.043643	121.355000
80.457210	10.120672	121.401000
80.560675	10.432046	121.448000
80.590756	10.532284	121.602000
80.621467	10.636807	121.648000
80.651032	10.724762	121.693000
80.682373	10.806717	121.740000
80.790126	10.906642	121.786000
80.820522	11.259150	121.947000
80.852370	11.346277	121.993000
80.882673	11.433279	122.040000
80.913960	11.522307	122.085000
80.945101	11.611547	122.133000
80.976327	11.694323	122.179000
81.005186	11.771888	122.225000
81.036765	11.838429	122.271000
81.067752	11.903740	122.318000
81.099162	11.966036	122.364000
81.129458	12.031165	122.411000
81.161083	12.106710	122.457000
81.192071	12.196492	122.504000
81.664665	12.958310	122.550000
81.695706	13.826549	123.259000
81.726278	13.906641	123.306000
81.757627	13.986586	123.352000
81.788891	14.078070	123.398000
81.819264	14.172621	123.443000
81.849314	14.276268	123.490000
81.879940	14.384295	123.536000
81.910343	14.487218	123.582000
82.015030	14.777291	123.627000
82.046225	14.859240	123.785000
82.077159	14.946833	123.831000
82.108377	15.042062	123.876000
82.139948	15.140783	123.924000
82.258273	15.238380	123.970000
82.288631	15.575464	124.148000
82.319249	15.660667	124.194000
82.350221	15.752892	124.240000
82.380817	15.850485	124.287000
82.411251	15.956996	124.333000
82.442154	16.070349	124.378000
82.473202	16.191982	124.425000
82.504351	16.322517	124.471000
82.535200	16.458457	124.518000
82.566072	16.593318	124.564000
82.596968	16.726256	124.610000
82.627310	16.863178	124.656000
82.657490	16.999189	124.702000
82.761586	17.428158	124.749000
82.791574	17.540607	124.903000
82.823138	17.658406	124.949000
82.854571	17.790269	124.996000
82.885043	17.923017	125.042000
82.991083	18.056627	125.088000
83.020226	18.526371	125.247000
83.051306	18.696461	125.293000
83.082716	18.882411	125.339000
83.113165	19.057915	125.386000
83.144360	19.221607	125.432000
83.176116	19.378151	125.478000
83.207387	19.532194	125.525000
83.238198	19.680267	125.571000
83.266927	19.820040	125.616000
83.297822	19.953095	125.662000
83.328502	20.086010	125.708000
83.359397	20.216298	125.753000
83.390008	20.342611	125.799000
83.492751	20.780629	125.846000
83.523231	20.907817	126.000000
83.553665	21.039102	126.045000
83.584246	21.183607	126.091000
83.614710	21.325468	126.138000
83.723931	21.454864	126.184000
83.755126	21.906283	126.347000
83.786466	22.042388	126.393000
83.817216	22.177213	126.440000
83.848387	22.298370	126.487000
83.879713	22.421553	126.533000
83.910646	22.555041	126.579000
83.940197	22.682266	126.625000
83.970600	22.809891	126.671000
84.001849	22.939015	126.718000
84.032952	23.075348	126.764000
84.064077	23.206486	126.811000
84.094542	23.332843	126.857000
84.125783	23.463191	126.903000
84.227566	23.978150	126.948000
84.258876	24.154536	127.103000
84.289295	24.349343	127.150000
84.320505	24.528880	127.196000
84.351807	24.689702	127.241000
84.457409	24.856125	127.289000
84.489249	25.498442	127.448000
84.519676	25.707478	127.494000
84.550609	25.914606	127.540000
84.580552	26.124918	127.586000
84.611731	26.340161	127.632000
84.641566	26.555552	127.678000
84.673360	26.763354	127.724000
84.704301	26.970319	127.771000
84.735596	27.172720	127.817000
84.766322	27.372476	127.864000
84.797148	27.565936	127.910000
84.828689	27.759615	127.957000
84.859745	27.950891	128.003000
85.332916	29.603788	128.049000
85.364141	31.350927	128.759000
85.394414	31.553995	128.806000
85.425947	31.763211	128.852000
85.456542	31.978598	128.898000
85.487269	32.186725	128.945000
85.516504	32.381027	128.991000
85.548944	32.570878	129.037000
85.579270	32.767299	129.084000
85.683304	33.437245	129.130000
85.714445	33.631472	129.285000
85.744749	33.824997	129.331000
85.775921	34.024782	129.378000
85.805732	34.231742	129.424000
85.924549	34.443367	129.470000
85.955875	35.268459	129.648000
85.985817	35.489477	129.694000
86.017404	35.720058	129.740000
86.048745	35.962086	129.787000
86.079425	36.206862	129.833000
86.110143	36.447915	129.879000
86.141669	36.675162	129.926000
86.172395	36.893878	129.972000
86.203482	37.098125	130.019000
86.232402	37.300694	130.065000
86.264596	37.514585	130.111000
86.295276	37.734145	130.157000
86.326302	37.938979	130.204000
86.430390	38.578184	130.250000
86.460624	38.737783	130.405000
86.492065	38.896254	130.451000
86.521938	39.062898	130.497000
86.552403	39.234771	130.543000
86.658419	39.405506	130.589000
86.689184	40.048893	130.747000
86.720571	40.260655	130.794000
86.750944	40.465574	130.840000
86.782515	40.675488	130.886000
86.812534	40.903563	130.933000
86.844098	41.140117	130.979000
86.873794	41.391670	131.024000
86.904567	41.661353	131.071000
86.934970	41.941379	131.117000
86.966165	42.211155	131.163000
86.997344	42.460270	131.209000
87.027932	42.693278	131.255000
87.058305	42.928270	131.301000
87.160587	43.698239	131.347000
87.191974	43.930031	131.502000
87.223284	44.189819	131.548000
87.254540	44.471563	131.595000
87.285051	44.752958	131.641000
87.391951	45.027302	131.687000
87.422931	46.016948	131.847000
87.454533	46.274735	131.894000
87.485682	46.520521	131.939000
87.515955	46.768394	131.987000
87.545989	47.018216	132.033000
87.575909	47.285274	132.079000
87.607534	47.554115	132.124000
87.638398	47.824006	132.171000
87.669316	48.090490	132.217000
