Sample	2mm tape 2
date	07/01/2025
	
Temperature (K)	77.00
Angle (deg.)	0.000000
field / T	0.100000
	
		
Approx. trace time (s)	60.0	
		
Current / A	V1  -sample/ uV	time/s
0.001822	-2.429117	0.000000
0.001613	-2.492999	0.196000
0.001505	-2.500921	0.242000
0.001434	-2.519371	0.288000
0.001482	-2.530809	0.335000
0.001202	-2.518629	0.381000
0.001351	-2.508857	0.427000
0.001285	-2.500054	0.474000
0.001255	-2.496150	0.520000
0.001559	-2.394898	0.566000
0.002837	-2.376256	0.723000
0.031246	-2.366277	0.769000
0.062426	-2.354814	0.814000
0.092841	-2.350021	0.861000
0.210904	-2.354592	0.908000
0.242387	-2.417535	1.084000
0.272975	-2.446053	1.130000
0.304842	-2.471093	1.176000
0.334612	-2.503567	1.223000
0.366518	-2.527690	1.269000
0.396570	-2.564259	1.315000
0.426830	-2.587194	1.362000
0.457624	-2.606234	1.408000
0.488164	-2.617812	1.453000
0.518955	-2.619346	1.500000
0.549567	-2.612929	1.545000
0.581128	-2.607207	1.591000
0.611916	-2.581344	1.638000
0.714036	-2.497907	1.684000
0.744852	-2.468140	1.839000
0.776514	-2.430641	1.885000
0.807414	-2.395193	1.932000
0.838652	-2.364377	1.978000
0.944758	-2.311062	2.024000
0.975737	-2.253633	2.184000
1.006734	-2.241819	2.230000
1.037255	-2.236963	2.276000
1.067547	-2.236072	2.322000
1.097549	-2.238955	2.368000
1.128983	-2.231661	2.415000
1.160172	-2.222912	2.461000
1.191406	-2.204301	2.507000
1.222051	-2.179226	2.553000
1.253513	-2.146400	2.600000
1.284781	-2.101400	2.646000
1.315150	-2.050166	2.692000
1.345587	-1.999274	2.739000
1.447883	-1.849624	2.785000
1.479383	-1.813814	2.939000
1.510106	-1.780570	2.985000
1.541708	-1.748672	3.031000
1.572710	-1.733058	3.078000
1.679050	-1.720472	3.124000
1.709842	-1.757762	3.284000
1.740045	-1.761485	3.331000
1.770734	-1.757160	3.376000
1.801584	-1.755151	3.423000
1.832317	-1.767898	3.467000
1.863674	-1.787208	3.514000
1.894528	-1.808809	3.561000
1.925119	-1.828479	3.607000
1.956629	-1.851703	3.654000
1.987106	-1.860322	3.700000
2.017656	-1.863854	3.746000
2.047819	-1.856845	3.791000
2.078469	-1.842890	3.838000
2.182199	-1.708158	3.884000
2.212997	-1.652535	4.039000
2.245089	-1.589700	4.085000
2.276016	-1.539724	4.132000
2.306616	-1.504339	4.179000
2.412253	-1.473523	4.225000
2.442604	-1.373497	4.384000
2.473306	-1.334867	4.430000
2.505081	-1.293272	4.477000
2.535826	-1.268551	4.523000
2.566825	-1.250906	4.569000
2.597618	-1.237905	4.615000
2.629262	-1.235430	4.662000
2.660670	-1.248187	4.708000
2.691542	-1.269968	4.755000
2.720906	-1.289802	4.802000
2.751981	-1.312281	4.848000
2.783006	-1.336700	4.894000
2.814052	-1.361260	4.941000
3.286701	-1.465475	4.986000
3.317019	-1.377028	5.696000
3.348283	-1.353933	5.742000
3.379121	-1.337443	5.788000
3.410492	-1.342926	5.835000
3.441717	-1.356775	5.880000
3.472622	-1.383232	5.927000
3.503219	-1.402924	5.973000
3.533282	-1.423623	6.019000
3.638143	-1.441688	6.065000
3.668243	-1.422668	6.222000
3.699593	-1.397844	6.268000
3.730971	-1.382435	6.315000
3.761914	-1.377441	6.361000
3.880279	-1.372871	6.407000
3.910531	-1.404248	6.584000
3.942188	-1.429655	6.631000
3.973042	-1.456015	6.677000
4.003846	-1.484974	6.724000
4.034640	-1.511761	6.770000
4.065289	-1.527136	6.817000
4.095949	-1.528229	6.863000
4.126778	-1.512524	6.909000
4.158797	-1.492779	6.956000
4.189608	-1.461529	7.002000
4.220629	-1.422265	7.048000
3.390755	-1.390866	7.094000
4.901302	-1.481634	7.141000
4.383990	-1.236275	7.187000
4.415503	-1.223864	7.341000
4.446348	-1.214797	7.388000
4.477883	-1.210524	7.434000
4.509237	-1.207805	7.481000
4.612760	-1.183434	7.527000
4.644810	-1.123973	7.684000
4.675212	-1.137005	7.731000
4.705724	-1.154745	7.777000
4.735723	-1.164181	7.823000
4.767161	-1.172326	7.869000
4.798337	-1.187961	7.916000
4.829618	-1.209963	7.961000
4.859932	-1.232572	8.008000
4.891291	-1.254110	8.054000
4.922123	-1.277256	8.100000
4.951799	-1.292944	8.146000
4.982593	-1.304898	8.193000
5.013468	-1.325251	8.238000
5.117688	-1.400570	8.285000
5.148827	-1.410388	8.440000
5.179313	-1.423601	8.486000
5.210123	-1.428839	8.533000
5.241144	-1.435846	8.579000
5.346655	-1.434563	8.625000
5.376666	-1.406030	8.784000
5.407957	-1.371928	8.830000
5.438139	-1.337008	8.876000
5.470062	-1.303785	8.923000
5.500910	-1.271733	8.969000
5.532545	-1.247995	9.015000
5.562365	-1.242082	9.062000
5.593967	-1.249625	9.108000
5.623717	-1.261505	9.153000
5.654230	-1.272125	9.199000
5.684364	-1.281487	9.246000
5.715910	-1.303849	9.293000
5.747541	-1.326363	9.339000
5.851263	-1.412233	9.385000
5.882294	-1.430028	9.540000
5.910506	-1.445633	9.586000
5.942418	-1.454786	9.632000
5.973176	-1.452442	9.678000
6.079907	-1.441700	9.724000
6.110638	-1.361642	9.884000
6.141007	-1.340975	9.930000
6.172566	-1.319230	9.975000
6.203196	-1.316078	10.022000
6.234024	-1.304241	10.068000
6.263387	-1.302897	10.114000
6.294586	-1.289010	10.160000
6.325476	-1.266138	10.207000
6.356789	-1.237746	10.253000
6.386781	-1.207120	10.299000
6.418033	-1.187284	10.345000
6.449629	-1.163620	10.391000
6.480737	-1.133937	10.437000
6.954709	-1.035612	10.483000
6.985308	-1.133558	11.196000
7.016252	-1.141968	11.241000
7.046972	-1.138202	11.287000
7.077018	-1.133282	11.333000
7.106344	-1.112556	11.378000
7.137791	-1.081443	11.425000
7.169150	-1.049365	11.471000
7.199421	-1.020151	11.517000
7.305846	-1.004055	11.564000
7.336384	-1.017703	11.723000
7.367844	-1.039536	11.769000
7.399666	-1.070649	11.815000
7.430393	-1.089980	11.862000
7.547616	-1.107498	11.908000
7.576761	-1.145522	12.084000
7.607895	-1.135218	12.130000
7.638948	-1.113468	12.176000
7.669889	-1.100149	12.223000
7.701212	-1.100903	12.270000
7.732619	-1.098336	12.316000
7.763730	-1.090479	12.362000
7.794533	-1.079716	12.409000
7.825645	-1.070013	12.455000
7.856404	-1.076004	12.501000
7.887261	-1.088559	12.547000
7.917152	-1.102164	12.594000
7.947990	-1.098527	12.640000
8.051202	-1.093649	12.686000
8.082768	-1.084996	12.840000
8.114276	-1.074932	12.887000
8.144683	-1.066990	12.933000
8.173871	-1.052791	12.979000
8.280085	-1.011775	13.026000
8.310471	-0.914496	13.184000
8.342473	-0.910381	13.230000
8.372439	-0.915779	13.276000
8.403742	-0.931886	13.323000
8.435006	-0.951164	13.368000
8.466178	-0.974493	13.415000
8.496869	-0.996529	13.461000
8.526161	-1.012697	13.507000
8.557364	-1.030947	13.554000
8.587998	-1.053480	13.599000
8.619025	-1.086194	13.646000
8.649620	-1.132965	13.692000
8.681517	-1.174357	13.739000
8.784411	-1.251899	13.785000
8.815252	-1.267142	13.939000
8.845377	-1.266318	13.986000
8.876085	-1.271279	14.032000
8.907604	-1.266951	14.078000
9.013108	-1.258530	14.125000
9.045236	-1.257306	14.284000
9.076183	-1.259050	14.331000
9.107360	-1.263376	14.377000
9.138075	-1.258321	14.423000
9.168937	-1.251361	14.469000
9.199203	-1.233619	14.515000
9.229624	-1.209669	14.562000
9.260392	-1.190911	14.608000
9.291437	-1.182819	14.654000
9.322850	-1.174929	14.700000
9.353219	-1.154459	14.746000
9.384078	-1.134881	14.792000
9.415334	-1.118368	14.838000
9.517363	-1.082938	14.885000
9.548164	-1.079800	15.040000
9.579284	-1.082673	15.086000
9.610049	-1.094465	15.131000
9.641566	-1.117849	15.178000
9.748081	-1.143301	15.225000
9.778450	-1.214756	15.384000
9.809818	-1.239744	15.430000
9.838972	-1.272146	15.476000
9.869659	-1.296751	15.522000
9.899986	-1.319665	15.568000
9.931331	-1.347421	15.614000
9.961969	-1.377472	15.661000
9.993720	-1.404673	15.707000
10.024763	-1.433123	15.753000
10.056156	-1.461031	15.800000
10.087020	-1.486586	15.846000
10.117383	-1.519036	15.892000
10.147714	-1.537709	15.939000
10.623055	-1.590532	15.984000
10.653508	-1.478334	16.696000
10.685196	-1.450827	16.743000
10.715598	-1.415666	16.789000
10.746526	-1.381065	16.836000
10.776773	-1.347779	16.881000
10.807364	-1.327177	16.928000
10.838553	-1.309105	16.974000
10.869930	-1.291651	17.021000
10.974054	-1.225672	17.068000
11.004880	-1.206514	17.223000
11.035679	-1.186288	17.269000
11.066065	-1.179794	17.316000
11.097127	-1.169702	17.362000
11.214205	-1.156131	17.408000
11.245571	-1.088834	17.584000
11.276570	-1.092217	17.631000
11.307345	-1.104083	17.677000
11.338786	-1.120673	17.724000
11.369122	-1.133154	17.770000
11.400765	-1.142208	17.816000
11.431837	-1.145553	17.862000
11.461915	-1.142717	17.909000
11.491622	-1.126480	17.955000
11.522812	-1.103902	18.001000
11.554201	-1.078262	18.047000
11.584977	-1.064816	18.094000
11.615723	-1.065802	18.140000
11.719763	-1.114856	18.186000
11.750417	-1.122280	18.341000
11.780711	-1.120632	18.387000
11.811151	-1.106427	18.433000
11.842148	-1.079620	18.480000
11.948058	-1.071836	18.526000
11.978772	-1.050798	18.684000
12.010638	-1.066577	18.731000
12.041535	-1.092080	18.777000
12.072794	-1.118347	18.824000
12.103639	-1.141247	18.870000
12.134066	-1.160967	18.916000
12.164951	-1.183899	18.963000
12.195375	-1.206897	19.009000
12.226338	-1.226277	19.056000
12.257550	-1.253920	19.101000
12.288727	-1.275100	19.147000
12.319201	-1.309827	19.194000
12.350934	-1.346722	19.241000
12.453030	-1.447690	19.287000
12.483307	-1.455537	19.442000
12.514804	-1.462908	19.488000
12.545940	-1.490457	19.534000
12.576617	-1.497562	19.580000
12.681738	-1.494836	19.626000
12.712834	-1.479896	19.784000
12.744206	-1.471200	19.830000
12.774365	-1.458454	19.877000
12.804504	-1.436673	19.923000
12.836137	-1.410430	19.970000
12.866961	-1.380421	20.016000
12.898153	-1.358481	20.062000
12.928093	-1.345565	20.109000
12.959316	-1.354187	20.154000
12.991081	-1.354525	20.200000
13.021919	-1.355470	20.247000
13.052280	-1.355797	20.293000
13.083372	-1.357644	20.340000
13.185630	-1.377494	20.385000
13.216656	-1.380156	20.541000
13.248025	-1.392573	20.587000
13.278645	-1.399571	20.633000
13.310180	-1.419635	20.679000
13.415718	-1.438020	20.726000
13.445998	-1.551680	20.884000
13.476136	-1.572147	20.930000
13.507387	-1.579131	20.977000
13.537719	-1.588048	21.023000
13.568953	-1.593285	21.069000
13.600270	-1.603820	21.115000
13.630312	-1.577608	21.162000
13.661899	-1.570668	21.207000
13.692466	-1.569505	21.253000
13.722732	-1.564363	21.300000
13.752584	-1.566109	21.345000
13.784147	-1.561866	21.391000
13.814818	-1.544262	21.437000
14.290952	-1.489025	21.484000
14.321162	-1.438137	22.196000
14.350662	-1.421045	22.243000
14.382514	-1.417853	22.289000
14.413653	-1.427662	22.336000
14.444941	-1.425891	22.381000
14.475265	-1.417546	22.428000
14.506771	-1.412138	22.475000
14.537700	-1.413453	22.521000
14.641536	-1.393528	22.567000
14.671796	-1.378140	22.723000
14.702094	-1.358513	22.769000
14.733667	-1.340178	22.815000
14.764469	-1.324102	22.862000
14.881860	-1.323571	22.908000
14.913250	-1.284216	23.084000
14.943756	-1.287760	23.130000
14.975956	-1.293768	23.177000
15.006190	-1.300315	23.224000
15.038321	-1.311964	23.270000
15.067738	-1.324745	23.316000
15.098749	-1.335819	23.363000
15.129818	-1.346891	23.409000
15.160966	-1.371863	23.455000
15.192067	-1.388946	23.501000
15.223293	-1.404322	23.548000
15.254625	-1.408744	23.594000
15.285450	-1.401544	23.640000
15.388544	-1.451654	23.687000
15.418249	-1.452025	23.842000
15.449932	-1.451081	23.889000
15.481024	-1.458228	23.935000
15.512167	-1.458280	23.981000
15.617303	-1.458334	24.028000
15.647549	-1.489765	24.184000
15.678646	-1.491080	24.230000
15.708980	-1.463317	24.276000
15.739288	-1.449606	24.323000
15.769666	-1.441452	24.369000
15.801426	-1.420310	24.416000
15.832497	-1.425326	24.462000
15.863740	-1.433343	24.508000
15.894855	-1.433088	24.555000
15.925698	-1.439130	24.601000
15.956698	-1.458238	24.647000
15.986990	-1.486308	24.692000
16.016590	-1.522860	24.739000
16.120211	-1.643945	24.785000
16.152330	-1.681912	24.941000
16.183266	-1.718407	24.987000
16.214622	-1.750936	25.034000
16.245250	-1.786583	25.080000
16.350517	-1.814376	25.126000
16.380611	-1.865570	25.284000
16.411330	-1.872080	25.331000
16.442002	-1.882325	25.377000
16.473370	-1.889842	25.423000
16.504576	-1.898411	25.470000
16.535696	-1.912758	25.516000
16.566672	-1.910827	25.562000
16.597464	-1.881201	25.609000
16.628651	-1.859200	25.655000
16.659235	-1.861416	25.701000
16.689148	-1.856612	25.747000
16.719642	-1.837811	25.793000
16.750931	-1.813283	25.840000
16.855178	-1.810505	25.886000
16.886210	-1.819549	26.041000
16.916953	-1.819306	26.087000
16.947034	-1.837173	26.134000
16.978150	-1.848383	26.180000
17.082407	-1.852910	26.226000
17.114261	-1.864713	26.384000
17.145490	-1.869217	26.431000
17.176222	-1.878718	26.477000
17.206673	-1.881242	26.524000
17.237757	-1.878389	26.569000
17.268919	-1.875483	26.615000
17.299242	-1.867987	26.661000
17.329432	-1.865632	26.707000
17.360162	-1.868326	26.754000
17.391163	-1.860704	26.801000
17.422901	-1.863546	26.847000
17.453885	-1.869556	26.893000
17.485099	-1.879577	26.940000
17.958117	-1.908632	26.986000
17.988874	-1.872938	27.697000
18.019900	-1.886766	27.743000
18.050155	-1.891824	27.788000
18.082409	-1.898208	27.835000
18.112678	-1.896098	27.881000
18.143861	-1.915408	27.928000
18.174850	-1.923880	27.974000
18.205332	-1.926393	28.020000
18.309313	-1.914030	28.067000
18.340204	-1.928038	28.223000
18.371610	-1.945906	28.270000
18.402459	-1.954389	28.316000
18.433737	-1.952523	28.362000
18.551121	-1.956479	28.408000
18.581770	-1.926617	28.584000
18.612604	-1.911559	28.630000
18.642846	-1.893818	28.677000
18.673476	-1.874752	28.723000
18.704208	-1.857099	28.769000
18.734611	-1.833155	28.815000
18.765625	-1.809805	28.861000
18.796970	-1.786074	28.906000
18.828186	-1.763093	28.953000
18.858488	-1.745002	29.000000
18.889677	-1.719286	29.046000
18.919974	-1.690365	29.092000
18.950768	-1.653623	29.139000
19.054489	-1.558589	29.184000
19.085684	-1.529735	29.340000
19.116780	-1.504116	29.386000
19.148104	-1.477551	29.432000
19.178552	-1.462611	29.478000
19.284255	-1.457564	29.525000
19.314664	-1.383241	29.684000
19.344117	-1.350466	29.730000
19.375738	-1.310589	29.776000
19.406877	-1.252461	29.821000
19.438575	-1.201638	29.868000
19.469478	-1.176283	29.915000
19.500097	-1.155106	29.961000
19.531082	-1.142262	30.007000
19.560973	-1.140264	30.053000
19.592269	-1.147001	30.100000
19.622882	-1.157221	30.146000
19.653990	-1.176599	30.193000
19.684286	-1.198583	30.239000
19.788726	-1.222691	30.284000
19.819542	-1.216873	30.440000
19.850748	-1.205192	30.487000
19.881129	-1.208949	30.533000
19.911256	-1.218111	30.579000
20.017103	-1.225556	30.626000
20.047675	-1.229167	30.784000
20.079673	-1.237007	30.831000
20.110057	-1.253888	30.877000
20.141494	-1.278800	30.923000
20.171867	-1.309826	30.969000
20.203690	-1.346043	31.016000
20.234406	-1.385713	31.062000
20.264456	-1.426337	31.109000
20.294556	-1.468898	31.155000
20.325567	-1.505314	31.201000
20.357491	-1.534220	31.247000
20.388195	-1.555511	31.293000
20.419553	-1.571545	31.340000
20.522058	-1.551391	31.386000
20.553504	-1.561029	31.541000
20.583562	-1.583814	31.588000
20.614538	-1.590149	31.634000
20.645035	-1.579741	31.679000
20.750713	-1.567968	31.725000
20.782116	-1.550864	31.885000
20.813124	-1.559420	31.931000
20.844121	-1.563165	31.977000
20.874348	-1.564689	32.023000
20.905860	-1.559292	32.069000
20.935931	-1.555211	32.116000
20.966957	-1.551815	32.163000
20.997648	-1.551317	32.209000
21.029452	-1.554500	32.255000
21.060664	-1.562868	32.302000
21.091580	-1.577637	32.348000
21.121882	-1.589177	32.394000
21.153273	-1.606145	32.440000
21.625924	-1.603694	32.487000
21.657348	-1.483830	33.196000
21.687586	-1.462557	33.242000
21.718212	-1.439823	33.288000
21.749436	-1.424703	33.335000
21.780469	-1.407663	33.381000
21.810443	-1.397462	33.428000
21.840888	-1.387992	33.474000
21.872438	-1.382139	33.520000
21.977408	-1.344650	33.567000
22.008701	-1.332752	33.723000
22.039331	-1.318434	33.769000
22.068995	-1.304926	33.815000
22.099721	-1.292358	33.861000
22.218317	-1.305253	33.907000
22.248670	-1.307222	34.084000
22.278713	-1.315979	34.131000
22.309788	-1.336580	34.177000
22.340872	-1.358308	34.223000
22.372272	-1.384352	34.268000
22.403060	-1.406706	34.315000
22.434355	-1.416980	34.362000
22.465340	-1.421179	34.408000
22.495978	-1.406207	34.454000
22.525705	-1.403111	34.501000
22.556493	-1.422219	34.547000
22.587868	-1.432950	34.593000
22.618880	-1.426598	34.640000
22.723080	-1.453699	34.685000
22.754115	-1.469286	34.841000
22.783506	-1.489848	34.887000
22.815127	-1.519009	34.934000
22.845564	-1.541829	34.980000
22.951549	-1.565629	35.026000
22.981753	-1.589716	35.184000
23.012458	-1.590954	35.231000
23.043925	-1.594742	35.276000
23.074855	-1.586583	35.322000
23.105758	-1.567701	35.369000
23.135762	-1.555432	35.415000
23.166901	-1.543982	35.461000
23.197264	-1.539995	35.507000
23.228033	-1.548883	35.552000
23.259056	-1.567723	35.600000
23.290048	-1.589441	35.646000
23.321060	-1.612354	35.692000
23.351999	-1.645782	35.738000
23.454401	-1.702752	35.784000
23.485361	-1.680748	35.939000
23.515676	-1.664457	35.985000
23.546681	-1.671228	36.031000
23.578060	-1.672508	36.077000
23.684929	-1.671757	36.124000
23.716243	-1.722384	36.285000
23.747156	-1.733481	36.330000
23.778199	-1.742260	36.377000
23.808740	-1.744651	36.423000
23.839134	-1.754408	36.470000
23.869812	-1.727770	36.516000
23.901228	-1.681466	36.563000
23.932083	-1.640580	36.609000
23.962377	-1.626425	36.656000
23.994549	-1.617244	36.701000
24.025183	-1.592743	36.748000
24.056545	-1.563686	36.794000
24.086857	-1.539998	36.841000
24.189884	-1.541532	36.887000
24.220833	-1.560171	37.042000
24.252454	-1.575573	37.089000
24.282983	-1.590817	37.135000
24.313924	-1.607287	37.181000
24.419178	-1.617348	37.228000
24.448859	-1.644089	37.385000
24.480188	-1.635838	37.431000
24.510453	-1.640895	37.476000
24.541450	-1.629447	37.523000
24.571727	-1.624517	37.570000
24.603627	-1.620054	37.616000
24.634243	-1.606873	37.662000
24.665332	-1.578049	37.708000
24.695550	-1.540016	37.754000
24.725905	-1.501937	37.799000
24.755782	-1.482256	37.844000
24.786518	-1.471132	37.890000
24.817227	-1.450592	37.936000
25.294684	-1.428054	37.982000
25.325205	-1.405816	38.697000
25.355249	-1.408394	38.742000
25.385036	-1.403495	38.789000
25.416146	-1.398807	38.835000
25.446888	-1.396019	38.882000
25.478765	-1.394863	38.928000
25.508865	-1.398044	38.974000
25.540428	-1.404788	39.020000
25.645499	-1.442618	39.066000
25.676450	-1.457241	39.224000
25.707077	-1.481556	39.270000
25.736541	-1.493464	39.316000
25.768051	-1.514503	39.362000
25.884881	-1.540674	39.409000
25.915767	-1.624053	39.584000
25.947238	-1.637382	39.630000
25.977267	-1.646829	39.677000
26.009048	-1.654476	39.723000
26.039845	-1.657068	39.769000
26.070564	-1.663418	39.815000
26.099138	-1.674576	39.861000
26.130848	-1.683906	39.907000
26.161476	-1.688857	39.953000
26.192656	-1.672674	39.999000
26.223449	-1.662202	40.045000
26.254794	-1.664073	40.091000
26.286008	-1.678916	40.138000
26.387320	-1.713996	40.184000
26.418584	-1.721200	40.338000
26.449394	-1.726321	40.384000
26.480904	-1.727431	40.430000
26.511538	-1.719531	40.477000
26.619195	-1.710654	40.523000
26.650651	-1.690651	40.685000
26.681256	-1.667157	40.731000
26.712311	-1.651191	40.777000
26.743000	-1.633441	40.823000
26.773425	-1.613087	40.870000
26.803613	-1.587708	40.916000
26.834643	-1.553531	40.962000
26.865344	-1.546571	41.008000
26.896656	-1.541705	41.054000
26.927140	-1.519946	41.101000
26.958977	-1.503596	41.147000
26.990079	-1.485164	41.193000
27.020631	-1.468602	41.239000
27.122976	-1.435439	41.286000
27.153898	-1.429992	41.440000
27.184240	-1.421954	41.486000
27.215946	-1.414616	41.532000
27.247189	-1.403015	41.579000
27.353391	-1.396377	41.625000
27.383703	-1.378583	41.784000
27.412946	-1.364956	41.830000
27.443568	-1.350737	41.876000
27.475240	-1.327133	41.922000
27.506285	-1.302431	41.969000
27.536869	-1.283135	42.015000
27.568567	-1.259913	42.061000
27.599639	-1.236653	42.108000
27.630789	-1.214848	42.154000
27.660591	-1.190625	42.200000
27.691506	-1.173614	42.246000
27.721419	-1.164886	42.293000
27.753125	-1.156497	42.339000
27.856727	-1.137646	42.385000
27.887349	-1.132168	42.540000
27.918581	-1.131268	42.586000
27.949695	-1.124086	42.633000
27.980408	-1.115740	42.679000
28.085882	-1.095341	42.726000
28.116487	-1.015535	42.884000
28.146810	-0.992898	42.930000
28.177798	-0.974108	42.976000
28.209196	-0.946844	43.023000
28.239572	-0.909709	43.069000
28.271296	-0.866904	43.115000
28.302268	-0.828570	43.162000
28.333026	-0.799033	43.208000
28.362147	-0.772036	43.254000
28.393292	-0.752159	43.300000
28.424054	-0.743569	43.346000
28.455837	-0.738438	43.393000
28.486294	-0.741020	43.439000
28.959626	-0.650846	43.486000
28.991583	-0.421670	44.197000
29.022615	-0.402893	44.243000
29.053479	-0.402037	44.289000
29.083942	-0.411124	44.336000
29.115903	-0.419332	44.382000
29.146693	-0.417861	44.429000
29.177717	-0.420559	44.474000
29.208014	-0.419438	44.521000
29.310813	-0.400471	44.567000
29.343270	-0.401349	44.724000
29.373971	-0.408976	44.770000
29.404813	-0.419268	44.817000
29.435737	-0.431550	44.863000
29.552299	-0.443706	44.909000
29.584197	-0.495520	45.084000
29.614602	-0.499943	45.129000
29.645259	-0.493262	45.176000
29.673987	-0.474217	45.222000
29.705616	-0.456545	45.268000
29.736794	-0.444869	45.314000
29.767556	-0.449206	45.360000
29.798546	-0.462071	45.406000
29.829112	-0.481957	45.452000
29.860409	-0.496295	45.499000
29.891377	-0.512042	45.545000
29.921279	-0.524257	45.591000
29.951765	-0.535519	45.637000
30.052974	-0.573903	45.683000
30.083635	-0.582790	45.838000
30.114852	-0.582896	45.885000
30.145609	-0.582780	45.931000
30.176677	-0.578930	45.978000
30.284532	-0.585366	46.024000
30.314154	-0.585844	46.184000
30.344887	-0.585398	46.230000
30.374661	-0.592896	46.276000
30.406205	-0.604370	46.322000
30.437047	-0.612906	46.368000
30.468232	-0.616086	46.414000
30.498724	-0.621908	46.461000
30.529824	-0.625684	46.507000
30.560264	-0.629225	46.553000
30.590357	-0.653254	46.599000
30.619938	-0.673254	46.645000
30.651475	-0.688890	46.691000
30.682762	-0.701512	46.737000
30.786440	-0.712408	46.783000
30.817543	-0.710239	46.938000
30.846905	-0.705394	46.984000
30.878359	-0.700655	47.030000
30.908465	-0.688302	47.077000
31.016706	-0.669258	47.123000
31.047518	-0.577777	47.285000
31.078335	-0.540952	47.331000
31.109850	-0.498769	47.377000
31.140815	-0.467341	47.423000
31.172240	-0.436799	47.470000
31.202323	-0.412545	47.516000
31.234276	-0.389079	47.563000
31.264438	-0.370240	47.609000
31.294536	-0.357618	47.654000
31.324430	-0.342111	47.701000
31.355963	-0.316733	47.747000
31.387686	-0.294010	47.794000
31.419004	-0.269034	47.840000
31.522571	-0.210353	47.887000
31.552562	-0.201785	48.041000
31.583572	-0.186515	48.088000
31.614045	-0.165784	48.134000
31.644705	-0.138927	48.180000
31.750505	-0.113264	48.227000
31.780933	-0.082300	48.384000
31.811784	-0.097485	48.430000
31.843296	-0.112066	48.476000
31.874821	-0.107189	48.523000
31.905313	-0.080275	48.569000
31.934596	-0.054762	48.615000
31.965613	-0.039333	48.662000
31.996396	-0.042471	48.708000
32.027487	-0.062661	48.754000
32.059061	-0.083477	48.801000
32.089992	-0.103636	48.847000
32.120525	-0.123444	48.893000
32.151028	-0.144184	48.939000
32.625337	-0.220532	48.985000
32.656532	-0.206121	49.697000
32.687704	-0.221254	49.744000
32.718776	-0.231434	49.790000
32.749202	-0.231773	49.836000
32.780562	-0.230627	49.882000
32.811427	-0.228793	49.929000
32.841335	-0.235590	49.975000
32.871158	-0.220840	50.020000
32.976798	-0.213436	50.067000
33.007835	-0.207731	50.224000
33.039506	-0.200818	50.270000
33.070090	-0.190022	50.317000
33.100563	-0.178188	50.363000
33.218054	-0.167319	50.409000
33.249145	-0.170097	50.584000
33.279084	-0.177912	50.630000
33.309453	-0.185769	50.677000
33.339718	-0.199714	50.723000
33.371362	-0.215768	50.769000
33.402876	-0.237136	50.816000
33.433641	-0.259196	50.862000
33.463852	-0.283419	50.908000
33.495439	-0.304649	50.954000
33.525516	-0.330557	51.000000
33.556449	-0.354621	51.047000
33.585858	-0.383153	51.093000
33.618136	-0.411714	51.139000
33.721824	-0.506507	51.186000
33.752838	-0.533367	51.340000
33.783726	-0.559644	51.386000
33.813803	-0.585844	51.433000
33.844548	-0.610573	51.479000
33.950491	-0.635492	51.525000
33.981602	-0.729331	51.684000
34.012332	-0.748351	51.731000
34.043599	-0.761764	51.777000
34.074548	-0.777874	51.823000
34.106181	-0.793425	51.869000
34.136320	-0.801509	51.916000
34.167338	-0.794895	51.962000
34.198663	-0.777103	52.008000
34.229017	-0.754020	52.055000
34.259017	-0.734766	52.101000
34.289601	-0.706048	52.147000
34.321007	-0.705625	52.193000
34.352152	-0.717928	52.239000
34.456120	-0.732450	52.286000
34.485571	-0.717928	52.440000
34.516213	-0.697119	52.486000
34.546601	-0.671217	52.533000
34.578118	-0.646064	52.578000
34.684534	-0.624856	52.625000
34.716102	-0.572959	52.785000
34.746805	-0.565200	52.831000
34.777700	-0.559506	52.878000
34.809214	-0.540556	52.924000
34.840036	-0.514035	52.970000
34.871273	-0.490739	53.017000
34.900466	-0.468332	53.063000
34.931646	-0.446327	53.109000
34.963305	-0.430766	53.156000
34.993962	-0.426462	53.202000
35.025537	-0.414827	53.249000
35.056290	-0.405982	53.295000
35.087977	-0.413016	53.342000
35.189906	-0.472594	53.388000
35.220125	-0.474165	53.542000
35.250490	-0.465171	53.588000
35.282057	-0.452984	53.634000
35.313732	-0.448920	53.681000
35.418692	-0.450359	53.727000
35.449591	-0.465139	53.885000
35.479319	-0.466706	53.930000
35.510183	-0.465478	53.976000
35.539972	-0.462748	54.022000
35.571128	-0.458525	54.068000
35.601923	-0.458674	54.115000
35.633518	-0.464156	54.161000
35.664398	-0.473412	54.207000
35.695750	-0.494503	54.253000
35.725942	-0.516496	54.299000
35.757164	-0.545201	54.345000
35.787748	-0.577276	54.392000
35.818040	-0.606182	54.439000
36.293246	-0.653670	54.485000
36.324268	-0.641603	55.197000
36.355363	-0.677201	55.243000
36.386132	-0.713434	55.289000
36.416343	-0.744102	55.335000
36.446727	-0.767776	55.382000
36.477749	-0.787896	55.428000
36.509428	-0.802781	55.475000
36.540043	-0.806134	55.521000
36.645095	-0.749644	55.567000
36.675855	-0.740177	55.724000
36.706635	-0.746164	55.770000
36.736893	-0.740640	55.816000
36.766705	-0.727947	55.861000
36.884404	-0.705436	55.909000
36.915487	-0.634276	56.085000
36.946282	-0.635155	56.130000
36.977942	-0.633459	56.177000
37.008637	-0.633989	56.223000
37.040097	-0.628857	56.270000
37.071188	-0.629568	56.316000
37.100970	-0.631465	56.362000
37.131285	-0.629949	56.408000
37.161534	-0.628496	56.454000
37.193536	-0.633131	56.501000
37.223901	-0.626439	56.547000
37.255138	-0.616948	56.593000
37.285979	-0.606153	56.639000
37.388569	-0.556189	56.685000
37.419045	-0.540400	56.840000
37.449714	-0.527909	56.886000
37.480847	-0.516138	56.932000
37.510882	-0.502724	56.978000
37.618032	-0.497336	57.024000
37.649491	-0.529032	57.185000
37.680878	-0.536647	57.231000
37.711793	-0.543507	57.278000
37.741920	-0.555034	57.324000
37.773925	-0.569232	57.370000
37.804386	-0.590703	57.416000
37.834325	-0.605485	57.463000
37.865439	-0.608582	57.509000
37.896438	-0.610543	57.555000
37.927506	-0.619016	57.601000
37.958697	-0.628008	57.647000
37.989653	-0.631560	57.694000
38.020664	-0.628760	57.740000
38.122477	-0.608899	57.787000
38.153780	-0.604996	57.940000
38.184675	-0.605654	57.988000
38.215105	-0.605219	58.033000
38.246884	-0.608072	58.080000
38.352670	-0.609302	58.126000
38.384068	-0.632112	58.284000
38.414848	-0.636957	58.331000
38.444860	-0.628029	58.377000
38.475532	-0.605876	58.423000
38.506139	-0.587553	58.470000
38.536908	-0.580863	58.516000
38.567814	-0.570642	58.563000
38.599647	-0.558500	58.609000
38.630857	-0.544567	58.655000
38.661629	-0.530071	58.701000
38.691318	-0.510846	58.747000
38.723473	-0.498916	58.794000
38.753020	-0.494028	58.840000
38.856708	-0.508966	58.886000
38.887988	-0.519847	59.041000
38.918748	-0.523982	59.088000
38.950108	-0.521236	59.134000
38.981007	-0.528808	59.180000
39.086690	-0.543164	59.227000
39.116175	-0.587859	59.385000
39.146352	-0.584062	59.431000
39.176989	-0.603372	59.477000
39.208580	-0.638843	59.523000
39.239859	-0.666784	59.569000
39.271335	-0.689366	59.616000
39.302003	-0.702208	59.661000
39.333309	-0.718264	59.709000
39.364600	-0.735074	59.755000
39.394800	-0.758886	59.802000
39.425684	-0.785088	59.848000
39.455526	-0.803592	59.894000
39.486825	-0.816574	59.940000
39.961678	-0.841918	59.987000
39.990552	-0.593849	60.696000
40.021789	-0.583754	60.743000
40.052308	-0.578834	60.789000
40.083349	-0.575780	60.834000
40.113580	-0.580531	60.881000
40.145381	-0.585738	60.926000
40.176123	-0.595706	60.973000
40.207775	-0.599342	61.020000
40.312443	-0.618602	61.066000
40.342278	-0.637487	61.224000
40.373031	-0.670435	61.270000
40.403519	-0.695122	61.316000
40.434794	-0.715802	61.362000
40.552778	-0.741994	61.408000
40.583358	-0.750595	61.585000
40.615125	-0.734559	61.631000
40.646116	-0.715211	61.678000
40.677253	-0.692891	61.724000
40.706523	-0.683835	61.770000
40.738160	-0.705796	61.816000
40.768898	-0.733014	61.863000
40.799585	-0.753367	61.909000
40.830227	-0.743688	61.956000
40.861626	-0.725821	62.002000
40.892989	-0.705659	62.048000
40.923508	-0.681123	62.094000
40.954319	-0.656660	62.141000
41.056413	-0.627043	62.187000
41.087823	-0.618263	62.341000
41.118165	-0.611053	62.387000
41.148914	-0.616863	62.433000
41.180086	-0.602432	62.479000
41.286813	-0.570473	62.525000
41.318042	-0.586494	62.685000
41.348526	-0.570505	62.731000
41.379037	-0.544292	62.777000
41.409026	-0.512172	62.824000
41.440820	-0.479746	62.870000
41.471615	-0.469342	62.916000
41.502222	-0.471771	62.962000
41.532749	-0.482715	63.008000
41.564231	-0.505747	63.054000
41.595227	-0.530104	63.100000
41.625384	-0.546243	63.146000
41.654600	-0.548205	63.192000
41.685880	-0.554090	63.239000
41.788850	-0.531163	63.284000
41.820402	-0.526148	63.439000
41.851708	-0.519466	63.486000
41.882277	-0.509022	63.532000
41.912665	-0.498768	63.578000
42.019853	-0.486912	63.624000
42.050552	-0.398135	63.785000
42.081247	-0.392824	63.831000
42.111505	-0.390688	63.877000
42.142342	-0.392899	63.923000
42.174041	-0.390306	63.969000
42.205324	-0.387324	64.016000
42.236849	-0.388287	64.062000
42.266845	-0.387830	64.109000
42.297948	-0.381051	64.154000
42.328355	-0.366834	64.201000
42.359396	-0.354233	64.248000
42.389996	-0.323111	64.294000
42.421390	-0.297552	64.341000
42.524794	-0.238344	64.387000
42.555793	-0.232353	64.541000
42.586915	-0.231058	64.588000
42.616623	-0.243889	64.633000
42.648079	-0.266926	64.680000
42.752977	-0.292273	64.726000
42.784134	-0.383017	64.885000
42.814848	-0.399285	64.932000
42.845843	-0.403463	64.977000
42.876823	-0.403137	65.023000
42.908517	-0.402140	65.069000
42.939236	-0.412424	65.115000
42.968940	-0.422738	65.162000
42.999501	-0.428630	65.208000
43.030584	-0.427583	65.255000
43.061460	-0.422473	65.301000
43.092006	-0.425478	65.347000
43.123266	-0.433369	65.393000
43.154338	-0.441071	65.439000
43.627639	-0.533211	65.485000
43.658780	-0.312078	66.197000
43.688857	-0.291789	66.243000
43.720494	-0.276450	66.289000
43.751554	-0.262021	66.334000
43.782925	-0.248601	66.382000
43.812610	-0.238836	66.427000
43.844063	-0.230512	66.474000
43.873994	-0.223184	66.520000
43.979107	-0.179787	66.566000
44.010725	-0.176247	66.724000
44.041151	-0.183775	66.771000
44.073057	-0.190318	66.816000
44.103733	-0.192980	66.863000
44.220418	-0.204008	66.910000
44.251586	-0.327179	67.085000
44.281801	-0.382042	67.131000
44.312439	-0.443979	67.177000
44.342761	-0.510451	67.223000
44.373660	-0.576341	67.270000
44.404536	-0.649096	67.315000
44.435950	-0.720570	67.362000
44.467172	-0.799298	67.408000
44.497710	-0.873516	67.454000
44.528597	-0.943238	67.500000
44.558889	-1.010253	67.546000
44.589431	-1.079052	67.592000
44.619631	-1.146044	67.638000
44.723407	-1.368140	67.685000
44.753357	-1.429527	67.839000
44.785348	-1.484410	67.885000
44.815812	-1.538236	67.931000
44.845970	-1.590807	67.977000
44.954157	-1.636292	68.024000
44.982931	-1.769199	68.185000
45.014776	-1.809050	68.231000
45.045740	-1.823726	68.277000
45.077995	-1.844606	68.324000
45.108518	-1.876828	68.370000
45.139835	-1.882661	68.416000
45.170815	-1.891006	68.463000
45.202313	-1.893264	68.509000
45.232628	-1.901705	68.555000
45.262840	-1.912225	68.601000
45.293305	-1.920072	68.647000
45.323927	-1.925109	68.694000
45.354964	-1.930940	68.740000
45.459002	-1.935691	68.787000
45.490397	-1.930103	68.942000
45.521403	-1.927834	68.988000
45.551526	-1.910667	69.034000
45.581649	-1.907517	69.080000
45.687232	-1.903328	69.127000
45.718411	-1.930591	69.284000
45.749156	-1.923518	69.331000
45.780409	-1.926837	69.377000
45.810705	-1.943062	69.423000
45.842606	-1.959901	69.469000
45.873110	-1.985499	69.515000
45.903191	-2.011479	69.561000
45.933010	-2.034846	69.607000
45.964385	-2.060380	69.654000
45.995784	-2.081285	69.700000
46.026825	-2.109046	69.746000
46.057447	-2.136707	69.793000
46.089007	-2.159980	69.839000
46.191528	-2.138886	69.886000
46.221497	-2.113679	70.040000
46.252953	-2.077285	70.086000
46.283863	-2.025770	70.133000
46.314997	-1.971958	70.179000
46.421144	-1.915184	70.225000
46.452373	-1.710588	70.385000
46.483145	-1.608208	70.430000
46.513948	-1.496436	70.477000
46.544348	-1.397418	70.523000
46.575001	-1.314173	70.569000
46.605650	-1.253812	70.615000
46.636511	-1.214364	70.661000
46.667510	-1.189831	70.708000
46.698928	-1.171119	70.754000
46.729619	-1.152014	70.800000
46.760764	-1.131483	70.846000
46.791944	-1.112470	70.893000
46.823257	-1.095514	70.939000
47.296654	-1.007170	70.985000
47.327573	-0.941131	71.697000
47.358184	-0.918385	71.743000
47.389340	-0.900240	71.789000
47.420435	-0.889491	71.835000
47.450143	-0.872968	71.882000
47.480374	-0.840544	71.928000
47.511757	-0.825142	71.975000
47.542932	-0.823409	72.020000
47.647965	-0.788972	72.067000
47.678960	-0.772816	72.224000
47.709452	-0.763359	72.270000
47.740943	-0.767126	72.316000
47.771715	-0.779366	72.363000
47.888480	-0.781375	72.409000
47.918419	-0.844499	72.585000
47.948899	-0.853638	72.631000
47.980551	-0.852527	72.677000
48.011773	-0.837931	72.723000
48.042837	-0.819068	72.769000
48.073678	-0.818498	72.816000
48.104374	-0.821872	72.862000
48.135423	-0.810374	72.908000
48.166034	-0.786019	72.954000
48.194958	-0.762482	73.001000
48.226483	-0.748042	73.046000
48.257547	-0.723088	73.092000
48.288850	-0.697586	73.138000
48.392131	-0.563502	73.184000
48.422500	-0.538743	73.339000
48.453072	-0.524098	73.386000
48.483280	-0.495106	73.432000
48.515170	-0.454578	73.478000
48.621175	-0.420887	73.525000
48.652646	-0.353806	73.685000
48.683676	-0.339345	73.732000
48.715028	-0.315218	73.778000
48.745969	-0.277567	73.824000
48.776799	-0.242544	73.870000
48.807775	-0.202025	73.916000
48.838090	-0.183680	73.962000
48.868371	-0.165198	74.009000
48.898405	-0.149142	74.054000
48.930534	-0.138000	74.101000
48.961298	-0.141126	74.147000
48.992478	-0.146927	74.193000
49.022712	-0.145102	74.240000
49.127011	-0.170138	74.285000
49.157130	-0.185960	74.441000
49.188291	-0.179681	74.488000
49.219074	-0.155771	74.534000
49.250557	-0.136982	74.580000
49.356066	-0.139347	74.626000
49.386412	-0.151359	74.785000
49.418472	-0.144593	74.832000
49.449693	-0.134894	74.878000
49.480354	-0.118044	74.925000
49.510469	-0.088013	74.971000
49.540504	-0.071587	75.017000
49.571265	-0.060251	75.062000
49.602229	-0.052701	75.109000
49.633773	-0.035740	75.156000
49.664722	-0.024906	75.202000
49.696040	-0.028483	75.248000
49.726597	-0.014751	75.294000
49.758146	-0.010158	75.341000
49.859198	-0.027533	75.387000
49.891342	-0.038199	75.542000
49.922353	-0.049216	75.588000
49.953305	-0.055473	75.635000
49.984081	-0.066702	75.681000
50.089237	-0.073245	75.727000
50.120436	-0.079395	75.885000
50.150985	-0.083435	75.931000
50.181665	-0.091642	75.977000
50.211377	-0.096129	76.024000
50.242564	-0.095439	76.069000
50.273825	-0.067964	76.116000
50.304831	-0.036272	76.162000
50.335538	-0.009857	76.208000
50.367294	0.003717	76.254000
50.398212	0.013778	76.301000
50.428446	0.022269	76.346000
50.457912	0.038457	76.393000
50.488831	0.066860	76.439000
50.964709	0.314350	76.484000
50.995839	0.524168	77.198000
51.026189	0.524391	77.244000
51.055866	0.522655	77.289000
51.086919	0.521534	77.336000
51.118075	0.512066	77.382000
51.148678	0.506111	77.428000
51.179731	0.493256	77.474000
51.210392	0.485016	77.520000
51.315713	0.433423	77.566000
51.346642	0.420125	77.723000
51.376731	0.401421	77.770000
51.406796	0.392947	77.816000
51.438352	0.405880	77.862000
51.555490	0.416964	77.909000
51.586562	0.401749	78.085000
51.617903	0.407220	78.131000
51.649194	0.422276	78.178000
51.680055	0.439750	78.224000
51.710977	0.462579	78.269000
51.741030	0.482752	78.316000
51.770420	0.509834	78.362000
51.801734	0.529257	78.408000
51.833386	0.562632	78.454000
51.864434	0.588114	78.501000
51.895330	0.608859	78.547000
51.926444	0.624559	78.593000
51.957466	0.638874	78.640000
52.059529	0.700433	78.686000
52.089852	0.722033	78.840000
52.120520	0.740142	78.886000
52.151615	0.753366	78.933000
52.183006	0.768424	78.979000
52.290025	0.790565	79.025000
52.320156	0.848101	79.185000
52.350828	0.861621	79.231000
52.382830	0.876779	79.277000
52.413901	0.888140	79.324000
52.444443	0.900708	79.371000
52.474290	0.909076	79.417000
52.505676	0.907626	79.464000
52.537021	0.899831	79.510000
52.567551	0.881985	79.555000
52.598481	0.864192	79.602000
52.629818	0.861916	79.648000
52.660901	0.901999	79.694000
52.691036	0.932764	79.740000
52.793533	1.007561	79.786000
52.823783	0.998528	79.942000
52.855235	0.986793	79.987000
52.886096	0.979706	80.034000
52.917348	0.969913	80.079000
53.023849	0.966083	80.125000
53.054079	0.958193	80.285000
53.084318	0.958688	80.331000
53.115013	0.957970	80.377000
53.145708	0.961663	80.424000
53.176757	0.961302	80.470000
53.208079	0.966370	80.515000
53.238740	0.966274	80.561000
53.269931	0.967523	80.608000
53.299643	0.957302	80.654000
53.330745	0.941709	80.700000
53.360403	0.925205	80.745000
53.391517	0.905625	80.792000
53.421710	0.886963	80.838000
53.525744	0.812534	80.884000
53.556643	0.793245	81.038000
53.587407	0.788855	81.084000
53.617576	0.783415	81.131000
53.648260	0.774784	81.177000
53.756704	0.764476	81.223000
53.786443	0.739259	81.385000
53.817984	0.729885	81.432000
53.848864	0.720016	81.478000
53.880339	0.711724	81.523000
53.911057	0.700324	81.570000
53.941791	0.687228	81.615000
53.972210	0.687789	81.662000
54.002099	0.679349	81.707000
54.032748	0.668936	81.753000
54.063881	0.666031	81.800000
54.095138	0.658278	81.846000
54.125357	0.646433	81.893000
54.156997	0.626594	81.939000
54.631608	0.445698	81.984000
54.661931	0.340003	82.698000
54.692757	0.313578	82.743000
54.723425	0.300461	82.790000
54.755139	0.283295	82.836000
54.786157	0.256287	82.883000
54.817698	0.224060	82.928000
54.847436	0.184486	82.975000
54.878842	0.130008	83.021000
54.981985	-0.017701	83.067000
55.012688	-0.037156	83.224000
55.043991	-0.045225	83.270000
55.074621	-0.047612	83.316000
55.106277	-0.020958	83.363000
55.223745	0.018496	83.409000
55.254510	-0.069265	83.585000
55.286058	-0.096634	83.631000
55.314998	-0.136156	83.677000
55.346600	-0.164445	83.723000
55.376965	-0.182779	83.770000
55.408002	-0.180170	83.816000
55.438333	-0.145929	83.862000
55.469835	-0.118331	83.908000
55.501264	-0.106432	83.955000
55.532220	-0.103770	84.001000
55.563123	-0.107715	84.047000
55.593922	-0.111374	84.094000
55.624372	-0.101310	84.140000
55.727031	-0.117739	84.186000
55.758706	-0.155508	84.341000
55.788733	-0.209970	84.387000
55.819943	-0.277496	84.433000
55.850953	-0.346350	84.479000
55.957365	-0.394875	84.525000
55.988702	-0.628664	84.685000
56.018399	-0.702737	84.732000
56.049509	-0.792992	84.778000
56.080166	-0.881558	84.824000
56.111269	-0.966887	84.871000
56.141472	-1.041612	84.917000
56.173270	-1.093063	84.963000
56.204504	-1.132636	85.009000
56.235629	-1.182880	85.056000
56.265960	-1.236654	85.101000
56.296144	-1.282403	85.148000
56.326778	-1.324562	85.194000
56.357608	-1.354173	85.240000
56.461135	-1.407744	85.286000
56.492222	-1.419717	85.441000
56.523179	-1.425358	85.487000
56.553598	-1.414107	85.533000
56.583986	-1.383939	85.579000
56.690632	-1.347927	85.625000
56.720855	-1.218562	85.784000
56.751447	-1.174694	85.831000
56.783103	-1.139151	85.877000
56.813925	-1.098333	85.924000
56.845054	-1.024889	85.970000
56.876072	-0.952816	86.016000
56.906641	-0.890423	86.062000
56.936960	-0.825631	86.108000
56.967275	-0.746141	86.154000
56.998374	-0.687569	86.201000
57.029588	-0.641962	86.247000
57.060372	-0.608390	86.293000
57.090963	-0.561894	86.339000
57.195032	-0.350859	86.386000
57.224594	-0.296909	86.540000
57.255600	-0.250520	86.587000
57.286073	-0.207213	86.632000
57.316811	-0.165963	86.679000
57.423968	-0.137398	86.725000
57.454779	-0.058028	86.885000
57.486143	-0.030158	86.931000
57.516784	0.001875	86.977000
57.548010	0.031030	87.023000
57.577311	0.073031	87.069000
57.608429	0.132280	87.115000
57.638836	0.181387	87.162000
57.669904	0.228152	87.208000
57.700726	0.276486	87.254000
57.731706	0.326185	87.300000
57.762570	0.359385	87.346000
57.793919	0.386437	87.392000
57.824199	0.418867	87.439000
58.297934	0.610233	87.484000
58.330170	0.751783	88.198000
58.361250	0.761062	88.244000
58.392180	0.773490	88.290000
58.422744	0.781156	88.336000
58.453275	0.795822	88.381000
58.483424	0.798632	88.428000
58.513755	0.798622	88.474000
58.544558	0.815322	88.520000
58.649425	0.860277	88.567000
58.681247	0.894191	88.724000
58.712215	0.921769	88.771000
58.743225	0.952112	88.817000
58.774028	0.967862	88.863000
58.891408	0.984650	88.909000
58.921992	1.075621	89.085000
58.951812	1.118355	89.131000
58.982749	1.155011	89.177000
59.013256	1.188244	89.224000
59.044828	1.220491	89.270000
59.076076	1.235613	89.316000
59.106837	1.256419	89.362000
59.137686	1.265939	89.408000
59.168040	1.275155	89.454000
59.198362	1.290514	89.500000
59.228009	1.330531	89.546000
59.259638	1.376075	89.591000
59.290391	1.407038	89.638000
59.394571	1.392076	89.684000
59.425405	1.391728	89.840000
59.455923	1.395229	89.886000
59.485489	1.397957	89.932000
59.516507	1.407965	89.978000
59.624395	1.422415	90.024000
59.654756	1.502966	90.186000
59.685874	1.521396	90.232000
59.716504	1.536635	90.278000
59.747960	1.541003	90.324000
59.778794	1.537546	90.369000
59.810038	1.532870	90.417000
59.840972	1.516508	90.463000
59.871375	1.485576	90.509000
59.901790	1.451030	90.555000
59.931967	1.422996	90.601000
59.962724	1.409086	90.647000
59.993911	1.400096	90.693000
60.025294	1.394721	90.739000
60.125533	1.352257	90.786000
60.155809	1.341775	90.940000
60.185233	1.333967	90.987000
60.217481	1.330953	91.033000
60.248702	1.328732	91.080000
60.354204	1.328160	91.125000
60.385887	1.350839	91.286000
60.416056	1.360264	91.332000
60.447827	1.372992	91.378000
60.478445	1.385392	91.423000
60.508972	1.400666	91.470000
60.538184	1.412019	91.516000
60.569076	1.420839	91.562000
60.600309	1.424308	91.607000
60.631607	1.424935	91.654000
60.662245	1.419612	91.701000
60.693782	1.414441	91.747000
60.725518	1.400613	91.793000
60.756310	1.384281	91.840000
60.857847	1.339575	91.886000
60.888431	1.326933	92.039000
60.919522	1.315021	92.085000
60.950302	1.306020	92.131000
60.980786	1.292594	92.177000
61.088842	1.278039	92.223000
61.119130	1.230212	92.385000
61.149445	1.221358	92.431000
61.179211	1.209588	92.476000
61.209891	1.196216	92.522000
61.240341	1.185113	92.567000
61.271051	1.180533	92.613000
61.301874	1.174498	92.658000
61.332581	1.172198	92.704000
61.362120	1.185347	92.750000
61.392650	1.201720	92.796000
61.423007	1.210330	92.840000
61.453530	1.212578	92.886000
61.483895	1.210309	92.932000
61.728605	1.352703	92.977000
61.973550	1.363071	93.345000
62.004449	1.412524	93.713000
62.035332	1.413465	93.759000
62.065133	1.409001	93.805000
62.094745	1.410589	93.850000
62.125709	1.414682	93.896000
62.156869	1.423526	93.941000
62.188206	1.431618	93.988000
62.218925	1.441308	94.034000
62.320988	1.463980	94.080000
62.352198	1.477137	94.235000
62.383024	1.494963	94.282000
62.413693	1.507698	94.328000
62.444427	1.535259	94.374000
62.554185	1.564038	94.420000
62.585506	1.678602	94.586000
62.616693	1.706459	94.632000
62.647961	1.735971	94.678000
62.678614	1.760598	94.724000
62.710105	1.781764	94.771000
62.740835	1.801720	94.817000
62.772068	1.818084	94.863000
62.801346	1.828461	94.909000
62.832349	1.831866	94.955000
62.863040	1.835697	95.001000
62.894112	1.827711	95.047000
62.924293	1.817617	95.094000
62.955772	1.815110	95.140000
63.059418	1.818855	95.186000
63.089599	1.802068	95.341000
63.120340	1.799783	95.387000
63.150548	1.811114	95.433000
63.181896	1.824907	95.479000
63.288704	1.834544	95.526000
63.320087	1.873609	95.686000
63.350886	1.877830	95.732000
63.381462	1.880527	95.778000
63.413272	1.881121	95.825000
63.443345	1.875883	95.870000
63.473572	1.873503	95.917000
63.503564	1.870943	95.963000
63.535685	1.875187	96.009000
63.566545	1.882221	96.055000
63.597625	1.890578	96.102000
63.627717	1.901810	96.148000
63.660015	1.915834	96.195000
63.691044	1.932736	96.241000
63.792911	1.979087	96.288000
63.823730	1.976500	96.442000
63.855071	1.978451	96.488000
63.885820	1.980445	96.534000
63.916661	1.969915	96.580000
64.023288	1.959343	96.626000
64.054103	1.936639	96.785000
64.084933	1.940817	96.831000
64.113619	1.948792	96.877000
64.145229	1.955154	96.923000
64.176270	1.965355	96.970000
64.207042	1.978016	97.016000
64.238448	1.993764	97.062000
64.269489	2.004463	97.108000
64.300469	2.021448	97.155000
64.330139	2.034162	97.200000
64.361956	2.054692	97.247000
64.391944	2.068148	97.293000
64.422955	2.083874	97.339000
64.526255	2.126015	97.386000
64.557581	2.131974	97.540000
64.588230	2.135485	97.587000
64.619978	2.145469	97.634000
64.650965	2.149363	97.680000
64.756743	2.157244	97.726000
64.787055	2.193865	97.886000
64.815952	2.215276	97.931000
64.847377	2.231074	97.977000
64.878319	2.240710	98.022000
64.908899	2.250390	98.068000
64.939302	2.283457	98.114000
64.970835	2.323707	98.159000
65.000947	2.345258	98.206000
65.031427	2.355968	98.252000
65.061085	2.382690	98.299000
65.092979	2.416952	98.345000
65.124282	2.439105	98.391000
65.155400	2.461476	98.438000
65.631897	2.538953	98.484000
65.661478	2.722096	99.198000
65.692504	2.725121	99.244000
65.723453	2.740617	99.290000
65.754210	2.752624	99.337000
65.785696	2.766746	99.383000
65.816753	2.781273	99.430000
65.847979	2.793341	99.476000
65.878267	2.801984	99.522000
65.982032	2.817232	99.568000
66.011874	2.822629	99.724000
66.042754	2.823138	99.770000
66.074548	2.834898	99.816000
66.105705	2.842290	99.863000
66.222939	2.849436	99.909000
66.254195	2.868482	100.086000
66.284745	2.896601	100.132000
66.315463	2.926706	100.178000
66.347004	2.962579	100.224000
66.377061	3.000846	100.270000
66.408302	3.035788	100.317000
66.438491	3.067426	100.363000
66.469862	3.087432	100.410000
66.500857	3.107024	100.456000
66.532098	3.126794	100.502000
66.563247	3.160477	100.549000
66.593842	3.201003	100.595000
66.625237	3.229173	100.641000
66.726459	3.332240	100.687000
66.757938	3.356204	100.842000
66.789225	3.361093	100.889000
66.820351	3.364603	100.934000
66.850946	3.364359	100.981000
66.956617	3.364295	101.026000
66.988188	3.454162	101.185000
67.019706	3.480724	101.232000
67.049210	3.530140	101.278000
67.079076	3.589505	101.324000
67.110355	3.655872	101.370000
67.141373	3.721237	101.417000
67.172314	3.793384	101.463000
67.202641	3.838642	101.509000
67.234258	3.881626	101.555000
67.265200	3.919157	101.601000
67.295849	3.966774	101.647000
67.325791	4.014365	101.694000
67.356687	4.051496	101.740000
67.460375	4.143742	101.786000
67.491324	4.174322	101.940000
67.522503	4.198467	101.987000
67.552630	4.225592	102.033000
67.584286	4.253694	102.079000
67.690348	4.282075	102.126000
67.721197	4.410163	102.286000
67.751432	4.440552	102.332000
67.782227	4.464365	102.379000
67.813414	4.492598	102.425000
67.844801	4.513861	102.471000
67.876088	4.530192	102.518000
67.906215	4.550859	102.564000
67.937856	4.582469	102.610000
67.968305	4.640769	102.656000
67.999154	4.701636	102.702000
68.028098	4.728242	102.748000
68.060253	4.748712	102.795000
68.090979	4.778774	102.841000
68.194890	4.944770	102.887000
68.226100	4.984853	103.042000
68.256250	5.026601	103.088000
68.287276	5.068804	103.135000
68.318048	5.118398	103.181000
68.423058	5.177548	103.227000
68.453869	5.351925	103.386000
68.484779	5.395532	103.431000
68.516305	5.440388	103.478000
68.547492	5.476302	103.524000
68.577987	5.516469	103.571000
68.608737	5.548696	103.617000
68.639901	5.581522	103.663000
68.669874	5.608959	103.709000
68.700884	5.640576	103.756000
68.731157	5.670567	103.802000
68.762867	5.706441	103.848000
68.793516	5.757998	103.894000
68.824695	5.802446	103.940000
69.298142	6.462069	103.986000
69.328308	7.145182	104.697000
69.360440	7.213375	104.744000
69.391158	7.302776	104.790000
69.422076	7.374891	104.836000
69.452418	7.429563	104.882000
69.483874	7.470364	104.928000
69.514055	7.519428	104.975000
69.544489	7.570665	105.021000
69.649514	7.750331	105.068000
69.678996	7.814204	105.224000
69.710890	7.882800	105.270000
69.742062	7.953128	105.316000
69.773241	8.016465	105.363000
69.891297	8.093534	105.409000
69.920994	8.291412	105.585000
69.952727	8.339701	105.632000
69.983645	8.387742	105.678000
70.013733	8.436117	105.725000
70.043822	8.483666	105.771000
70.075616	8.525050	105.817000
70.106334	8.564911	105.863000
70.137007	8.612307	105.908000
70.167364	8.664066	105.954000
70.198505	8.733379	106.000000
70.228870	8.814061	106.047000
70.258836	8.890040	106.092000
70.289362	8.963682	106.138000
70.392858	9.201020	106.185000
70.424806	9.276384	106.340000
70.456393	9.350142	106.387000
70.486696	9.418423	106.433000
70.515686	9.471523	106.479000
70.623777	9.517388	106.525000
70.654457	9.705970	106.685000
70.684991	9.781415	106.732000
70.716070	9.866046	106.778000
70.747027	9.956318	106.825000
70.778921	10.045782	106.871000
70.809616	10.134464	106.917000
70.840734	10.220427	106.963000
70.871007	10.305473	107.010000
70.902018	10.389821	107.056000
70.932605	10.467852	107.101000
70.962463	10.549807	107.148000
70.993159	10.629700	107.194000
71.024323	10.720033	107.240000
71.128334	11.015204	107.287000
71.159436	11.084350	107.441000
71.190186	11.165482	107.488000
71.220336	11.262203	107.534000
71.251185	11.339056	107.581000
71.356494	11.404410	107.627000
71.388096	11.644308	107.786000
71.419314	11.726790	107.832000
71.450240	11.800733	107.878000
71.481166	11.890728	107.924000
71.511746	11.994167	107.970000
71.541796	12.108847	108.016000
71.572315	12.236723	108.062000
71.602695	12.370058	108.108000
71.633905	12.478937	108.154000
71.664816	12.570695	108.200000
71.695511	12.654422	108.246000
71.726998	12.734693	108.293000
71.758339	12.817034	108.339000
71.860314	13.200494	108.384000
71.890925	13.324358	108.540000
71.922288	13.442775	108.586000
71.952799	13.563710	108.633000
71.984532	13.677604	108.679000
72.091140	13.785121	108.726000
72.122496	14.170457	108.885000
72.153084	14.262916	108.932000
72.183933	14.352040	108.979000
72.215428	14.458183	109.025000
72.245800	14.557041	109.071000
72.276327	14.649970	109.117000
72.306277	14.745115	109.164000
72.338470	14.828083	109.210000
72.369350	14.905987	109.257000
72.400730	14.994751	109.303000
72.431671	15.069237	109.349000
72.463380	15.153368	109.396000
72.493968	15.255695	109.442000
72.965986	16.184344	109.489000
72.997434	17.402566	110.198000
73.028076	17.513716	110.244000
73.059363	17.626966	110.290000
73.089498	17.745179	110.336000
73.119317	17.874346	110.382000
73.150304	18.012177	110.428000
73.181561	18.151065	110.475000
73.212371	18.284999	110.521000
73.316644	18.748639	110.567000
73.348676	18.892546	110.725000
73.379417	19.030469	110.770000
73.410697	19.175542	110.817000
73.440939	19.325672	110.863000
73.557950	19.481635	110.910000
73.588868	20.162652	111.086000
73.618880	20.356702	111.132000
73.650505	20.540557	111.179000
73.681669	20.710409	111.225000
73.712887	20.880471	111.271000
73.743244	21.045566	111.318000
73.774409	21.215596	111.364000
73.805826	21.384691	111.410000
73.835653	21.547812	111.456000
73.866249	21.705855	111.502000
73.896645	21.858323	111.549000
73.928131	22.004269	111.595000
73.958735	22.149620	111.641000
74.063053	22.688851	111.686000
74.094248	22.872559	111.842000
74.124820	23.062975	111.889000
74.155539	23.251216	111.935000
74.185550	23.436520	111.981000
74.291121	23.640497	112.028000
74.321609	24.327752	112.186000
74.353672	24.524856	112.233000
74.384344	24.714448	112.279000
74.416208	24.906724	112.325000
74.447057	25.093177	112.372000
74.477752	25.268911	112.419000
74.508847	25.452634	112.465000
74.538474	25.646345	112.511000
74.569277	25.830049	112.557000
74.600472	26.013341	112.603000
74.631229	26.182280	112.650000
74.662470	26.337741	112.696000
74.693373	26.494249	112.742000
74.796193	27.016398	112.788000
74.827196	27.175594	112.943000
74.857684	27.346174	112.989000
74.888533	27.519204	113.035000
74.919459	27.680525	113.081000
75.024584	27.847257	113.128000
75.056631	28.448202	113.286000
75.087388	28.627462	113.332000
75.118860	28.808521	113.378000
75.148495	28.989926	113.424000
75.180066	29.173578	113.471000
75.210446	29.370585	113.517000
75.241011	29.601349	113.563000
75.272006	29.845170	113.610000
75.303378	30.105288	113.656000
75.335026	30.362526	113.702000
75.365591	30.627648	113.749000
75.396071	30.888590	113.795000
75.427496	31.141496	113.841000
75.530001	31.958856	113.887000
75.560958	32.194618	114.042000
75.592345	32.426018	114.088000
75.622487	32.658204	114.134000
75.654020	32.875820	114.181000
75.759867	33.080420	114.228000
75.790839	33.817278	114.386000
75.821443	34.056815	114.432000
75.851277	34.305102	114.478000
75.882526	34.552277	114.525000
75.914044	34.794432	114.571000
75.944893	35.042054	114.618000
75.975504	35.294415	114.664000
76.007036	35.562142	114.711000
76.037970	35.823583	114.757000
76.068404	36.090184	114.803000
76.099215	36.351110	114.849000
76.130164	36.605056	114.896000
76.160706	36.867798	114.942000
76.635474	38.740391	114.988000
76.666069	40.034076	115.698000
76.696104	40.183781	115.745000
76.727199	40.339113	115.791000
76.758017	40.476251	115.837000
76.788736	40.636606	115.884000
76.818947	40.805607	115.930000
76.850380	40.986859	115.976000
76.881698	41.176583	116.021000
76.986047	41.801300	116.067000
77.016412	41.977030	116.225000
77.046293	42.166803	116.271000
77.077081	42.369294	116.317000
77.108952	42.581659	116.364000
77.226094	42.796032	116.410000
77.256459	43.642578	116.585000
77.287408	43.897141	116.632000
77.318894	44.181261	116.678000
77.350166	44.485476	116.724000
77.381261	44.809825	116.771000
77.410850	45.128661	116.817000
77.442483	45.448538	116.863000
77.472809	45.756417	116.910000
77.504204	46.055625	116.957000
77.534085	46.347827	117.003000
77.566025	46.626611	117.049000
77.597281	46.894471	117.095000
77.627923	47.154331	117.141000
77.730505	48.020678	117.188000
