Sample	2mm tape 2
date	07/01/2025
	
Temperature (K)	77.00
Angle (deg.)	0.000000
field / T	0.050000
	
		
Approx. trace time (s)	60.0	
		
Current / A	V1  -sample/ uV	time/s
0.004145	-2.129626	0.000000
0.003672	-2.122741	0.046000
0.002545	-2.104672	0.092000
0.001948	-2.082178	0.139000
0.001625	-2.068267	0.185000
0.001846	-1.995375	0.232000
0.001739	-1.982226	0.385000
0.001984	-1.978566	0.432000
0.002049	-1.984132	0.478000
0.001864	-2.002505	0.523000
0.001798	-2.029797	0.570000
0.009016	-2.080699	0.747000
0.039575	-2.103043	0.793000
0.070938	-2.118183	0.839000
0.101502	-2.123017	0.885000
0.132656	-2.121218	0.931000
0.163767	-2.118477	0.978000
0.194326	-2.111868	1.024000
0.224935	-2.098929	1.070000
0.255622	-2.093650	1.117000
0.286578	-2.101204	1.163000
0.317406	-2.111305	1.209000
0.349218	-2.131488	1.256000
0.380111	-2.150763	1.302000
0.483434	-2.143561	1.348000
0.513580	-2.140535	1.503000
0.543985	-2.137087	1.549000
0.574321	-2.132442	1.595000
0.605542	-2.113762	1.641000
0.712253	-2.083843	1.687000
0.742725	-2.005628	1.847000
0.774370	-1.983390	1.892000
0.804815	-1.959358	1.939000
0.836107	-1.927822	1.986000
0.866999	-1.887483	2.032000
0.896722	-1.851741	2.078000
0.927158	-1.829695	2.124000
0.958063	-1.798200	2.170000
0.989575	-1.778116	2.216000
1.020122	-1.752785	2.262000
1.051463	-1.737129	2.309000
1.082486	-1.727523	2.356000
1.114148	-1.725851	2.402000
1.587128	-1.731487	2.448000
1.618217	-1.709136	3.159000
1.649484	-1.691926	3.205000
1.680452	-1.675920	3.252000
1.712003	-1.662835	3.299000
1.742755	-1.646774	3.345000
1.773698	-1.632028	3.391000
1.803891	-1.608258	3.437000
1.834839	-1.584997	3.483000
1.938333	-1.502128	3.530000
1.968348	-1.487377	3.685000
2.001157	-1.467632	3.731000
2.031669	-1.454250	3.778000
2.063057	-1.440793	3.824000
2.180366	-1.426779	3.870000
2.208994	-1.359718	4.045000
2.240278	-1.339380	4.091000
2.270120	-1.311781	4.137000
2.301454	-1.287905	4.183000
2.332038	-1.267064	4.229000
2.362834	-1.247800	4.275000
2.393775	-1.230538	4.321000
2.424091	-1.212943	4.367000
2.455116	-1.192687	4.413000
2.485319	-1.178449	4.460000
2.515824	-1.155577	4.506000
2.546932	-1.132137	4.552000
2.578380	-1.111184	4.599000
2.681076	-1.073996	4.645000
2.713243	-1.069925	4.800000
2.743206	-1.053712	4.846000
2.773568	-1.032906	4.892000
2.803638	-1.029151	4.938000
2.911481	-1.035303	4.984000
2.943465	-1.084907	5.147000
2.974018	-1.099871	5.192000
3.005434	-1.116194	5.239000
3.035761	-1.121559	5.285000
3.067572	-1.125820	5.332000
3.098329	-1.123440	5.378000
3.129490	-1.105915	5.424000
3.158816	-1.087231	5.470000
3.189545	-1.079182	5.515000
3.220558	-1.083435	5.562000
3.252034	-1.098141	5.608000
3.282569	-1.114545	5.655000
3.313306	-1.130645	5.701000
3.417254	-1.147801	5.747000
3.446775	-1.149725	5.902000
3.477345	-1.146658	5.948000
3.507793	-1.141909	5.994000
3.539443	-1.131942	6.040000
3.646536	-1.122793	6.086000
3.677287	-1.057556	6.247000
3.708458	-1.056825	6.293000
3.738862	-1.065086	6.339000
3.770230	-1.072986	6.385000
3.800805	-1.081406	6.431000
3.831345	-1.083791	6.477000
3.861056	-1.080769	6.524000
3.893171	-1.077949	6.570000
3.924043	-1.066454	6.617000
3.955303	-1.056719	6.663000
3.986125	-1.044281	6.710000
4.017331	-1.038937	6.756000
4.048174	-1.036921	6.802000
4.150158	-1.054916	6.847000
4.181177	-1.064980	7.003000
4.211588	-1.076632	7.049000
4.243582	-1.092497	7.095000
4.273994	-0.994571	7.141000
4.380426	-1.195200	7.188000
4.411651	-1.211608	7.347000
4.442507	-1.221318	7.393000
4.472907	-1.223836	7.439000
4.502868	-1.227225	7.486000
4.533578	-1.241611	7.531000
4.564868	-1.267061	7.578000
4.596202	-1.292610	7.624000
4.627144	-1.309734	7.671000
4.658615	-1.328756	7.717000
4.688396	-1.346026	7.763000
4.719998	-1.362493	7.809000
4.750801	-1.381358	7.856000
4.780813	-1.400487	7.902000
5.255241	-1.533089	7.948000
5.286102	-1.597720	8.659000
5.317545	-1.589873	8.705000
5.348102	-1.577674	8.751000
5.378405	-1.559143	8.798000
5.408586	-1.533078	8.844000
5.439973	-1.497109	8.890000
5.471308	-1.464523	8.937000
5.502549	-1.449136	8.983000
5.606754	-1.478449	9.030000
5.636931	-1.499096	9.185000
5.668437	-1.520835	9.231000
5.698281	-1.549845	9.278000
5.728447	-1.582798	9.324000
5.846333	-1.618858	9.370000
5.877035	-1.716150	9.546000
5.907546	-1.725671	9.592000
5.938844	-1.725872	9.638000
5.969565	-1.729945	9.683000
6.000246	-1.741973	9.730000
6.030925	-1.750954	9.775000
6.061258	-1.758677	9.822000
6.091757	-1.767183	9.868000
6.122016	-1.781806	9.914000
6.153520	-1.797331	9.960000
6.184685	-1.813714	10.007000
6.216040	-1.833173	10.053000
6.246762	-1.850872	10.100000
6.349203	-1.824602	10.146000
6.379993	-1.796744	10.301000
6.411127	-1.782534	10.347000
6.442159	-1.771739	10.393000
6.473048	-1.763128	10.439000
6.580565	-1.762524	10.486000
6.611359	-1.733073	10.647000
6.642663	-1.701158	10.693000
6.673633	-1.682190	10.740000
6.704322	-1.665986	10.785000
6.735234	-1.644032	10.832000
6.765674	-1.618558	10.878000
6.796449	-1.586824	10.925000
6.826479	-1.550636	10.970000
6.857977	-1.508859	11.017000
6.888838	-1.462763	11.063000
6.920716	-1.420773	11.108000
6.950928	-1.384507	11.155000
6.982515	-1.355071	11.202000
7.083020	-1.282622	11.248000
7.115034	-1.256579	11.403000
7.146206	-1.232629	11.449000
7.177763	-1.219024	11.496000
7.209156	-1.213967	11.542000
7.313528	-1.215901	11.589000
7.345457	-1.249672	11.747000
7.376146	-1.254633	11.793000
7.407356	-1.255458	11.839000
7.436225	-1.245768	11.885000
7.467243	-1.240944	11.931000
7.497879	-1.240151	11.976000
7.528727	-1.248487	12.022000
7.559184	-1.254379	12.067000
7.589631	-1.263298	12.113000
7.619702	-1.271358	12.159000
7.649733	-1.284464	12.205000
7.680783	-1.294629	12.251000
7.711746	-1.309915	12.297000
7.815218	-1.359655	12.343000
7.846083	-1.364469	12.497000
7.877363	-1.361660	12.544000
7.906547	-1.362678	12.590000
7.938032	-1.365476	12.636000
8.048474	-1.371871	12.683000
8.078628	-1.377078	12.847000
8.109050	-1.387745	12.893000
8.139481	-1.401138	12.939000
8.171277	-1.417405	12.986000
8.202343	-1.444421	13.033000
8.233658	-1.466360	13.078000
8.263829	-1.490082	13.125000
8.295668	-1.505616	13.171000
8.326096	-1.516253	13.217000
8.356662	-1.529285	13.263000
8.386871	-1.545298	13.310000
8.417367	-1.569954	13.356000
8.448787	-1.600864	13.402000
8.923336	-1.871754	13.448000
8.953566	-1.777740	14.159000
8.983426	-1.758421	14.205000
9.014253	-1.757425	14.251000
9.045925	-1.767275	14.298000
9.077483	-1.772004	14.344000
9.108515	-1.743693	14.391000
9.139712	-1.714370	14.437000
9.170842	-1.685882	14.484000
9.273951	-1.511700	14.530000
9.304147	-1.455330	14.685000
9.334610	-1.406076	14.731000
9.366080	-1.359069	14.778000
9.397235	-1.306046	14.824000
9.514620	-1.253555	14.870000
9.545402	-1.204415	15.047000
9.576965	-1.214654	15.093000
9.607496	-1.221087	15.138000
9.638562	-1.232693	15.185000
9.668506	-1.251628	15.232000
9.699167	-1.273293	15.278000
9.729832	-1.300330	15.324000
9.761404	-1.332845	15.371000
9.792934	-1.351010	15.417000
9.823819	-1.340872	15.464000
9.854605	-1.319085	15.510000
9.886008	-1.296684	15.557000
9.916300	-1.279195	15.603000
10.018853	-1.198024	15.648000
10.049513	-1.172850	15.804000
10.080484	-1.157046	15.850000
10.111728	-1.153375	15.896000
10.143013	-1.151705	15.943000
10.248640	-1.153449	15.988000
10.279277	-1.158463	16.147000
10.310778	-1.152603	16.194000
10.340763	-1.143993	16.239000
10.370726	-1.134842	16.285000
10.401260	-1.126370	16.332000
10.432761	-1.113271	16.378000
10.464295	-1.104162	16.424000
10.495067	-1.105435	16.470000
10.526257	-1.111818	16.517000
10.557145	-1.117060	16.563000
10.587438	-1.122773	16.609000
10.617112	-1.128622	16.655000
10.648317	-1.130430	16.702000
10.752108	-1.051968	16.748000
10.783558	-1.029349	16.903000
10.814848	-1.019657	16.950000
10.845568	-1.020039	16.996000
10.875526	-1.025743	17.042000
10.981622	-1.030983	17.088000
11.011851	-1.008916	17.246000
11.042738	-0.996820	17.293000
11.073768	-0.987202	17.339000
11.104554	-0.972250	17.386000
11.135972	-0.953565	17.432000
11.167020	-0.931826	17.478000
11.198192	-0.911924	17.525000
11.228490	-0.895996	17.571000
11.260407	-0.885320	17.617000
11.290665	-0.879397	17.664000
11.320530	-0.870445	17.710000
11.350738	-0.869101	17.756000
11.382941	-0.874488	17.802000
11.486646	-0.905010	17.848000
11.517401	-0.891820	18.003000
11.547655	-0.881204	18.049000
11.577448	-0.881055	18.095000
11.608785	-0.893044	18.142000
11.713921	-0.906981	18.187000
11.745919	-0.969621	18.347000
11.776770	-0.972303	18.393000
11.808286	-0.963438	18.439000
11.839068	-0.939452	18.486000
11.870033	-0.915613	18.532000
11.901484	-0.896227	18.578000
11.931677	-0.877314	18.625000
11.962032	-0.866417	18.671000
11.992538	-0.875641	18.717000
12.023809	-0.892411	18.764000
12.054179	-0.900682	18.810000
12.086054	-0.894420	18.856000
12.117021	-0.870583	18.903000
12.590017	-0.794999	18.949000
12.621168	-0.824400	19.658000
12.650961	-0.828746	19.705000
12.683334	-0.833655	19.751000
12.713805	-0.828969	19.797000
12.745146	-0.818952	19.844000
12.774994	-0.823310	19.890000
12.806923	-0.820697	19.936000
12.836640	-0.829308	19.983000
12.940692	-0.861901	20.029000
12.972349	-0.889944	20.185000
13.002919	-0.900534	20.231000
13.034270	-0.905360	20.278000
13.065126	-0.902677	20.324000
13.182359	-0.892644	20.370000
13.213572	-0.877144	20.547000
13.243017	-0.895488	20.593000
13.275171	-0.913556	20.639000
13.305274	-0.935878	20.685000
13.336395	-0.963724	20.732000
13.366626	-0.987584	20.778000
13.398045	-1.023358	20.825000
13.429485	-1.059995	20.870000
13.460056	-1.094066	20.917000
13.490978	-1.126050	20.962000
13.521633	-1.153681	21.009000
13.551909	-1.170247	21.055000
13.582290	-1.173843	21.102000
13.686530	-1.201001	21.148000
13.716851	-1.220191	21.303000
13.748614	-1.242841	21.349000
13.779807	-1.263882	21.396000
13.810760	-1.278703	21.442000
13.916212	-1.286159	21.489000
13.945577	-1.303593	21.646000
13.976877	-1.300875	21.692000
14.007086	-1.299340	21.739000
14.038894	-1.297013	21.785000
14.069247	-1.308406	21.831000
14.100968	-1.324689	21.877000
14.131662	-1.337715	21.924000
14.162823	-1.341459	21.970000
14.192069	-1.350249	22.016000
14.223386	-1.362519	22.063000
14.254223	-1.379378	22.108000
14.285236	-1.382358	22.155000
14.316081	-1.377512	22.201000
14.420347	-1.363162	22.248000
14.450924	-1.356694	22.403000
14.481739	-1.350713	22.449000
14.512423	-1.337512	22.495000
14.542994	-1.326991	22.542000
14.648619	-1.320536	22.588000
14.679369	-1.330398	22.746000
14.710421	-1.351943	22.793000
14.741771	-1.374010	22.839000
14.772716	-1.399280	22.885000
14.803761	-1.421930	22.931000
14.834453	-1.435351	22.978000
14.865429	-1.460335	23.024000
14.895374	-1.484862	23.071000
14.926370	-1.497225	23.117000
14.957440	-1.492390	23.162000
14.988584	-1.481235	23.209000
15.019942	-1.461353	23.256000
15.051481	-1.457652	23.302000
15.153628	-1.480556	23.349000
15.183503	-1.481511	23.502000
15.214718	-1.497299	23.548000
15.245924	-1.511689	23.594000
15.276500	-1.515677	23.641000
15.383077	-1.515178	23.687000
15.414631	-1.524530	23.847000
15.446312	-1.515220	23.893000
15.477077	-1.499081	23.940000
15.506707	-1.488232	23.985000
15.538143	-1.478413	24.032000
15.568749	-1.470926	24.078000
15.599128	-1.468275	24.125000
15.629646	-1.468148	24.171000
15.661278	-1.480301	24.217000
15.692512	-1.491774	24.264000
15.723365	-1.510267	24.310000
15.754536	-1.530606	24.356000
15.785755	-1.554264	24.402000
16.258938	-1.656597	24.449000
16.289597	-1.832756	25.159000
16.321028	-1.847410	25.206000
16.351293	-1.859054	25.252000
16.382600	-1.864832	25.298000
16.412771	-1.868985	25.344000
16.442942	-1.868985	25.390000
16.473716	-1.866399	25.436000
16.505170	-1.853094	25.483000
16.610055	-1.847117	25.529000
16.640597	-1.864125	25.685000
16.672325	-1.884864	25.731000
16.701636	-1.901088	25.778000
16.732981	-1.905012	25.824000
16.850833	-1.910272	25.870000
16.881062	-1.896634	26.047000
16.911771	-1.893908	26.093000
16.942360	-1.891301	26.139000
16.973440	-1.882817	26.185000
17.004539	-1.869339	26.231000
17.035282	-1.841655	26.278000
17.067461	-1.811456	26.324000
17.098083	-1.786292	26.371000
17.128306	-1.766515	26.417000
17.158623	-1.755432	26.464000
17.189470	-1.745517	26.509000
17.220500	-1.737465	26.556000
17.251739	-1.728124	26.602000
17.355279	-1.709768	26.648000
17.386153	-1.700606	26.803000
17.416103	-1.695931	26.849000
17.447392	-1.699010	26.896000
17.478310	-1.706161	26.942000
17.583366	-1.713344	26.989000
17.614694	-1.730586	27.147000
17.644840	-1.733506	27.193000
17.676774	-1.734616	27.238000
17.707273	-1.737641	27.285000
17.739150	-1.744211	27.331000
17.768741	-1.756215	27.378000
17.799323	-1.775588	27.424000
17.830284	-1.793170	27.470000
17.860793	-1.810879	27.517000
17.892339	-1.827803	27.563000
17.923538	-1.832756	27.610000
17.954779	-1.827973	27.656000
17.985828	-1.817284	27.702000
18.089437	-1.749343	27.749000
18.118590	-1.733284	27.904000
18.150574	-1.718295	27.951000
18.181322	-1.707484	27.997000
18.212386	-1.694820	28.043000
18.317661	-1.685077	28.090000
18.347910	-1.677915	28.247000
18.380085	-1.674204	28.293000
18.410980	-1.673073	28.340000
18.441326	-1.684550	28.386000
18.470840	-1.722112	28.432000
18.502035	-1.755301	28.478000
18.533170	-1.788663	28.525000
18.564121	-1.813455	28.571000
18.594862	-1.838428	28.617000
18.626793	-1.858214	28.664000
18.657725	-1.877256	28.710000
18.688472	-1.898973	28.756000
18.718124	-1.922843	28.802000
18.820956	-2.047628	28.848000
18.852485	-2.081890	29.003000
18.883755	-2.107188	29.049000
18.914813	-2.124304	29.096000
18.946000	-2.122051	29.142000
19.051728	-2.114000	29.189000
19.082472	-2.145536	29.347000
19.112564	-2.166227	29.393000
19.143200	-2.186860	29.439000
19.174011	-2.203487	29.486000
19.205471	-2.215629	29.532000
19.235959	-2.223465	29.578000
19.266715	-2.229065	29.624000
19.297647	-2.225714	29.670000
19.328671	-2.217474	29.716000
19.359564	-2.209946	29.762000
19.389680	-2.194336	29.808000
19.419724	-2.176424	29.855000
19.450882	-2.169781	29.900000
19.927160	-2.260748	29.945000
19.958530	-2.329013	30.659000
19.988250	-2.317477	30.705000
20.017662	-2.308410	30.752000
20.049147	-2.295518	30.798000
20.080785	-2.272158	30.844000
20.111717	-2.250907	30.891000
20.142145	-2.232244	30.937000
20.173557	-2.208279	30.983000
20.277514	-2.152062	31.029000
20.307874	-2.150136	31.185000
20.337747	-2.149153	31.230000
20.368287	-2.149005	31.277000
20.400016	-2.149597	31.323000
20.517538	-2.147745	31.370000
20.549044	-2.134246	31.547000
20.579810	-2.114031	31.593000
20.610875	-2.076189	31.639000
20.642263	-2.033304	31.685000
20.673172	-1.982434	31.732000
20.703207	-1.937997	31.778000
20.732970	-1.920977	31.825000
20.764743	-1.913459	31.871000
20.795491	-1.914880	31.917000
20.827024	-1.924986	31.964000
20.856872	-1.937678	32.010000
20.888349	-1.944582	32.056000
20.919164	-1.948855	32.102000
21.022164	-1.966701	32.148000
21.052134	-1.981970	32.303000
21.083044	-1.990991	32.349000
21.114988	-1.992495	32.395000
21.145503	-1.982012	32.442000
21.252034	-1.970562	32.488000
21.282718	-1.891846	32.647000
21.313242	-1.868381	32.693000
21.344197	-1.839328	32.739000
21.374766	-1.811683	32.785000
21.405632	-1.785735	32.832000
21.435765	-1.761709	32.879000
21.467390	-1.733718	32.925000
21.498431	-1.698692	32.971000
21.529683	-1.661150	33.018000
21.559931	-1.622114	33.063000
21.591889	-1.590600	33.110000
21.622995	-1.556305	33.156000
21.653429	-1.529408	33.203000
21.756073	-1.446665	33.249000
21.787079	-1.431398	33.404000
21.817986	-1.427251	33.450000
21.848881	-1.423699	33.496000
21.879976	-1.416361	33.541000
21.985833	-1.396024	33.587000
22.016945	-1.327498	33.747000
22.045664	-1.338973	33.793000
22.076774	-1.352822	33.839000
22.107858	-1.369004	33.885000
22.139012	-1.388006	33.932000
22.170121	-1.410805	33.978000
22.201327	-1.433466	34.025000
22.232635	-1.455752	34.071000
22.263113	-1.472560	34.117000
22.294652	-1.482929	34.164000
22.324562	-1.475190	34.210000
22.355334	-1.454405	34.256000
22.385171	-1.430517	34.302000
22.489643	-1.387836	34.349000
22.520444	-1.358114	34.503000
22.550974	-1.353151	34.549000
22.581919	-1.367636	34.595000
22.612697	-1.389470	34.641000
22.718153	-1.405854	34.688000
22.748162	-1.433477	34.847000
22.780097	-1.435595	34.893000
22.810848	-1.457620	34.939000
22.842100	-1.481521	34.986000
22.872471	-1.511488	35.031000
22.904496	-1.533768	35.078000
22.935439	-1.554559	35.124000
22.966073	-1.557840	35.171000
22.995564	-1.534626	35.217000
23.026442	-1.504172	35.263000
23.057404	-1.477448	35.309000
23.088735	-1.467131	35.356000
23.120072	-1.470769	35.402000
23.593250	-1.611660	35.448000
23.624026	-1.409882	36.159000
23.655415	-1.389119	36.206000
23.686080	-1.368240	36.252000
23.717622	-1.346417	36.298000
23.748302	-1.347287	36.345000
23.779230	-1.359894	36.390000
23.809376	-1.381442	36.436000
23.840890	-1.396267	36.483000
23.943629	-1.377645	36.529000
23.975164	-1.360298	36.686000
24.006207	-1.336683	36.731000
24.037091	-1.313111	36.777000
24.068332	-1.288672	36.824000
24.186229	-1.267888	36.870000
24.217047	-1.198650	37.047000
24.248541	-1.173303	37.094000
24.278893	-1.152412	37.140000
24.309976	-1.130503	37.186000
24.340274	-1.108763	37.233000
24.371096	-1.091659	37.279000
24.401694	-1.074225	37.325000
24.432478	-1.055361	37.371000
24.463953	-1.041968	37.418000
24.495088	-1.030473	37.464000
24.525603	-1.019435	37.511000
24.556946	-1.015309	37.557000
24.587841	-1.013952	37.603000
24.689812	-1.019828	37.649000
24.721243	-1.026179	37.804000
24.752373	-1.031747	37.851000
24.783679	-1.038628	37.897000
24.814532	-1.044461	37.944000
24.919615	-1.044843	37.990000
24.950431	-1.004016	38.147000
24.979818	-0.981964	38.193000
25.010531	-0.960724	38.239000
25.041847	-0.961625	38.286000
25.073166	-0.976576	38.332000
25.104281	-0.988538	38.379000
25.135195	-1.004419	38.425000
25.167162	-1.008598	38.471000
25.198096	-1.001750	38.518000
25.228803	-0.979291	38.564000
25.259360	-0.952113	38.611000
25.290042	-0.927597	38.657000
25.320545	-0.903111	38.703000
25.424028	-0.806778	38.750000
25.454886	-0.763764	38.904000
25.486081	-0.725565	38.950000
25.517268	-0.700950	38.997000
25.547685	-0.702135	39.043000
25.651904	-0.718700	39.089000
25.682151	-0.710216	39.247000
25.713308	-0.704664	39.293000
25.744747	-0.682554	39.339000
25.775966	-0.653699	39.385000
25.806800	-0.618802	39.432000
25.837083	-0.584656	39.478000
25.869067	-0.556315	39.524000
25.899126	-0.550197	39.570000
25.929413	-0.565807	39.617000
25.959547	-0.586078	39.663000
25.991585	-0.600892	39.710000
26.022813	-0.598071	39.756000
26.053975	-0.577595	39.803000
26.157817	-0.512486	39.848000
26.188320	-0.478713	40.004000
26.219431	-0.446200	40.050000
26.249719	-0.423891	40.097000
26.280537	-0.418370	40.143000
26.385954	-0.421670	40.190000
26.417145	-0.455901	40.347000
26.447894	-0.467845	40.393000
26.479443	-0.459033	40.439000
26.510115	-0.439823	40.486000
26.540745	-0.416401	40.531000
26.571913	-0.387143	40.579000
26.602042	-0.365424	40.625000
26.632810	-0.352664	40.670000
26.663417	-0.343037	40.716000
26.694462	-0.333835	40.763000
26.725630	-0.308035	40.809000
26.756385	-0.281589	40.855000
26.786268	-0.253788	40.901000
27.260043	-0.285112	40.947000
27.292608	-0.396227	41.660000
27.323030	-0.441523	41.706000
27.355015	-0.493760	41.753000
27.385343	-0.548497	41.799000
27.416532	-0.605056	41.845000
27.447070	-0.655204	41.891000
27.477429	-0.699826	41.937000
27.507487	-0.744370	41.984000
27.611632	-0.828650	42.029000
27.644120	-0.843853	42.186000
27.674635	-0.852929	42.232000
27.705674	-0.863422	42.278000
27.735338	-0.888790	42.325000
27.853195	-0.915104	42.371000
27.884318	-0.915475	42.547000
27.914722	-0.919621	42.594000
27.945300	-0.932145	42.640000
27.975521	-0.948920	42.686000
28.007286	-0.957807	42.732000
28.038197	-0.960701	42.778000
28.069878	-0.960319	42.825000
28.100100	-0.963374	42.871000
28.131459	-0.953502	42.917000
28.161537	-0.942134	42.963000
28.191390	-0.939875	43.009000
28.221367	-0.942632	43.055000
28.253203	-0.940893	43.102000
28.357352	-0.955908	43.148000
28.388098	-0.973214	43.303000
28.419096	-0.996585	43.349000
28.448720	-1.008257	43.395000
28.479567	-0.996607	43.441000
28.586215	-0.986088	43.488000
28.616907	-1.033643	43.647000
28.647969	-1.060430	43.693000
28.678526	-1.092188	43.740000
28.710055	-1.123206	43.785000
28.740161	-1.154123	43.831000
28.771838	-1.181563	43.876000
28.801295	-1.200098	43.924000
28.832720	-1.207303	43.970000
28.863458	-1.220872	44.017000
28.894259	-1.233738	44.062000
28.924357	-1.248157	44.109000
28.955945	-1.269791	44.155000
28.987317	-1.292227	44.201000
29.089974	-1.358188	44.247000
29.119684	-1.370711	44.401000
29.150561	-1.386574	44.448000
29.181745	-1.408525	44.494000
29.213264	-1.431196	44.541000
29.319599	-1.454893	44.586000
29.351436	-1.509122	44.747000
29.382062	-1.519027	44.793000
29.413153	-1.525283	44.840000
29.442996	-1.526449	44.884000
29.473672	-1.532420	44.931000
29.503995	-1.535006	44.978000
29.535007	-1.539058	45.024000
29.566010	-1.536185	45.070000
29.596836	-1.533023	45.117000
29.627839	-1.526820	45.162000
29.659078	-1.520097	45.209000
29.690397	-1.508677	45.255000
29.721158	-1.494361	45.302000
29.823500	-1.456696	45.348000
29.854424	-1.454808	45.503000
29.884725	-1.453557	45.549000
29.916396	-1.454448	45.595000
29.947518	-1.454394	45.641000
30.050941	-1.457354	45.688000
30.081848	-1.426170	45.847000
30.112438	-1.408727	45.894000
30.144025	-1.383510	45.940000
30.174390	-1.361687	45.987000
30.205148	-1.344975	46.033000
30.235049	-1.331168	46.079000
30.267185	-1.324327	46.125000
30.297970	-1.324759	46.172000
30.329131	-1.332557	46.218000
30.359945	-1.346088	46.264000
30.391342	-1.354402	46.310000
30.421808	-1.367996	46.357000
30.452329	-1.381188	46.403000
30.926302	-1.435594	46.449000
30.957255	-1.451765	47.159000
30.988317	-1.452709	47.206000
31.018728	-1.456313	47.252000
31.048907	-1.460078	47.299000
31.079201	-1.465073	47.344000
31.110790	-1.470397	47.391000
31.142023	-1.478636	47.437000
31.172244	-1.489483	47.484000
31.277085	-1.536109	47.530000
31.307588	-1.554147	47.686000
31.339380	-1.570246	47.732000
31.369328	-1.580264	47.779000
31.399920	-1.581131	47.825000
31.517112	-1.585183	47.871000
31.547713	-1.578677	48.047000
31.579788	-1.563698	48.093000
31.610322	-1.549736	48.140000
31.641757	-1.540011	48.186000
31.673184	-1.536470	48.233000
31.704223	-1.534858	48.279000
31.735122	-1.533373	48.326000
31.764698	-1.535833	48.372000
31.796006	-1.542779	48.418000
31.826763	-1.555848	48.465000
31.857478	-1.568025	48.511000
31.888067	-1.581512	48.557000
31.919360	-1.597442	48.603000
32.022021	-1.640941	48.649000
32.053265	-1.650398	48.804000
32.083329	-1.661667	48.850000
32.114072	-1.673281	48.896000
32.145294	-1.685171	48.943000
32.249997	-1.698373	48.989000
32.282290	-1.732279	49.147000
32.313481	-1.740137	49.194000
32.344668	-1.751033	49.240000
32.375544	-1.761613	49.287000
32.405990	-1.772363	49.333000
32.436401	-1.780093	49.379000
32.466804	-1.789160	49.426000
32.497819	-1.794355	49.472000
32.528991	-1.789658	49.518000
32.560258	-1.782479	49.564000
32.590973	-1.769394	49.610000
32.622402	-1.746390	49.657000
32.653593	-1.712622	49.703000
32.755433	-1.607281	49.750000
32.786083	-1.577630	49.904000
32.816993	-1.547451	49.950000
32.847051	-1.514308	49.996000
32.878542	-1.483035	50.042000
32.985219	-1.463015	50.088000
33.016018	-1.446813	50.247000
33.046994	-1.451393	50.293000
33.075826	-1.465273	50.340000
33.107505	-1.473227	50.385000
33.138070	-1.479547	50.432000
33.168730	-1.490448	50.478000
33.200163	-1.504286	50.524000
33.231212	-1.519779	50.570000
33.262726	-1.535006	50.617000
33.293421	-1.539088	50.663000
33.323026	-1.526915	50.709000
33.353660	-1.498433	50.755000
33.384597	-1.486906	50.801000
33.487993	-1.478667	50.848000
33.519315	-1.472008	51.002000
33.549772	-1.467352	51.049000
33.580932	-1.466144	51.095000
33.612108	-1.465613	51.141000
33.718535	-1.469272	51.187000
33.749235	-1.388027	51.347000
33.778935	-1.373765	51.393000
33.810387	-1.352737	51.440000
33.841709	-1.313977	51.486000
33.872954	-1.267155	51.533000
33.903334	-1.225116	51.579000
33.935270	-1.201810	51.625000
33.966162	-1.185679	51.672000
33.997264	-1.173323	51.718000
34.026746	-1.168014	51.765000
34.058037	-1.171979	51.810000
34.088763	-1.182631	51.856000
34.119451	-1.193212	51.903000
34.593508	-1.136734	51.950000
34.623439	-0.893107	52.659000
34.654223	-0.843640	52.706000
34.685883	-0.799424	52.752000
34.716447	-0.766490	52.798000
34.747258	-0.741610	52.845000
34.778633	-0.713356	52.890000
34.809502	-0.681151	52.937000
34.840285	-0.659582	52.983000
34.944047	-0.677482	53.029000
34.974462	-0.674938	53.186000
35.006029	-0.661619	53.232000
35.037136	-0.648661	53.279000
35.068208	-0.643953	53.325000
35.185246	-0.642384	53.372000
35.215588	-0.585428	53.546000
35.246971	-0.557607	53.592000
35.278623	-0.527280	53.639000
35.309230	-0.498723	53.686000
35.338880	-0.470452	53.732000
35.370263	-0.447883	53.779000
35.401485	-0.434998	53.825000
35.432472	-0.433783	53.872000
35.462311	-0.446561	53.917000
35.493982	-0.459044	53.964000
35.524943	-0.478543	54.010000
35.556422	-0.500821	54.056000
35.587010	-0.526229	54.103000
35.688935	-0.622871	54.149000
35.720710	-0.647028	54.304000
35.751743	-0.674396	54.351000
35.783003	-0.695024	54.397000
35.813145	-0.698440	54.444000
35.918732	-0.694907	54.490000
35.950249	-0.663050	54.647000
35.980837	-0.625374	54.693000
36.011256	-0.578779	54.740000
36.041041	-0.522613	54.785000
36.072355	-0.480728	54.832000
36.103215	-0.473008	54.877000
36.134448	-0.480484	54.924000
36.164802	-0.491458	54.970000
36.195970	-0.510801	55.016000
36.227230	-0.522730	55.062000
36.257787	-0.525212	55.108000
36.286953	-0.523207	55.155000
36.318855	-0.530090	55.201000
36.421990	-0.577994	55.248000
36.453074	-0.590984	55.402000
36.484053	-0.607516	55.447000
36.515041	-0.620050	55.494000
36.546147	-0.635362	55.541000
36.652014	-0.651512	55.587000
36.682813	-0.686200	55.748000
36.713278	-0.686613	55.794000
36.744388	-0.687840	55.840000
36.775137	-0.697891	55.886000
36.806121	-0.714075	55.931000
36.837181	-0.728037	55.978000
36.867661	-0.720971	56.024000
36.899352	-0.702850	56.070000
36.929602	-0.689512	56.117000
36.960212	-0.681045	56.163000
36.989805	-0.679030	56.208000
37.021753	-0.683324	56.255000
37.051922	-0.676792	56.300000
37.155960	-0.620454	56.346000
37.185998	-0.590964	56.502000
37.216091	-0.572428	56.547000
37.246264	-0.558996	56.593000
37.277635	-0.535603	56.640000
37.385284	-0.508202	56.685000
37.415922	-0.392790	56.847000
37.447198	-0.357000	56.893000
37.477935	-0.319967	56.939000
37.509311	-0.287290	56.985000
37.540375	-0.250974	57.032000
37.570928	-0.213669	57.078000
37.600367	-0.181549	57.124000
37.631620	-0.143607	57.170000
37.662396	-0.112913	57.217000
37.693740	-0.089446	57.263000
37.724301	-0.065396	57.309000
37.755327	-0.039140	57.355000
37.786899	-0.010002	57.401000
38.260849	0.015620	57.448000
38.291348	-0.032155	58.160000
38.323085	-0.047123	58.206000
38.353776	-0.059425	58.252000
38.385175	-0.071640	58.298000
38.415309	-0.081439	58.345000
38.446969	-0.093092	58.391000
38.477292	-0.101639	58.437000
38.508241	-0.109825	58.484000
38.611618	-0.078904	58.530000
38.642305	-0.063115	58.685000
38.673815	-0.048916	58.731000
38.704261	-0.035740	58.777000
38.735621	-0.019268	58.824000
38.853631	-0.001517	58.870000
38.884019	0.053957	59.048000
38.915306	0.067574	59.094000
38.945671	0.078671	59.140000
38.975548	0.081316	59.186000
39.007177	0.071350	59.233000
39.037957	0.060249	59.279000
39.069728	0.052666	59.326000
39.100823	0.049345	59.372000
39.131457	0.060472	59.418000
39.162733	0.074714	59.465000
39.193843	0.069607	59.510000
39.223697	0.058675	59.557000
39.253517	0.056738	59.604000
39.357608	0.033572	59.650000
39.388715	0.026336	59.804000
39.419648	0.004017	59.850000
39.450275	-0.033296	59.897000
39.481039	-0.058841	59.943000
39.586460	-0.075140	59.989000
39.616936	-0.057282	60.147000
39.647559	-0.045989	60.194000
39.678608	-0.045979	60.240000
39.709826	-0.052659	60.286000
39.741024	-0.065670	60.333000
39.772204	-0.074068	60.379000
39.803206	-0.083835	60.426000
39.834716	-0.095509	60.472000
39.864102	-0.105828	60.518000
39.895369	-0.099974	60.564000
39.925151	-0.075129	60.611000
39.956226	-0.048205	60.657000
39.987168	-0.021870	60.702000
40.090087	0.040968	60.749000
40.121885	0.061215	60.903000
40.153046	0.083166	60.950000
40.183507	0.102578	60.997000
40.213115	0.121577	61.042000
40.318728	0.136650	61.089000
40.350407	0.221834	61.248000
40.381525	0.248578	61.293000
40.412443	0.272118	61.340000
40.443507	0.292539	61.386000
40.474925	0.309325	61.432000
40.505494	0.320312	61.479000
40.535809	0.336037	61.525000
40.565540	0.349006	61.571000
40.596850	0.364954	61.618000
40.627591	0.378995	61.663000
40.658859	0.398601	61.710000
40.689923	0.415526	61.756000
40.721253	0.430950	61.801000
40.823934	0.490548	61.848000
40.854272	0.530296	62.003000
40.885118	0.577761	62.050000
40.915425	0.623668	62.096000
40.947296	0.649119	62.142000
41.053382	0.644485	62.189000
41.084561	0.609145	62.348000
41.115748	0.586931	62.394000
41.146090	0.567954	62.439000
41.176908	0.541677	62.486000
41.206978	0.520224	62.532000
41.237800	0.499365	62.578000
41.268326	0.482064	62.625000
41.300197	0.479917	62.672000
41.331488	0.496344	62.718000
41.362679	0.519633	62.764000
41.392871	0.541369	62.811000
41.425134	0.568272	62.857000
41.454819	0.589184	62.903000
41.928431	0.727406	62.949000
41.959803	0.784381	63.660000
41.990091	0.775940	63.706000
42.021516	0.767118	63.752000
42.052534	0.767786	63.798000
42.083656	0.770576	63.845000
42.113514	0.778157	63.892000
42.144790	0.786927	63.938000
42.175500	0.796439	63.983000
42.279669	0.848966	64.030000
42.310856	0.863905	64.186000
42.340814	0.877867	64.232000
42.372047	0.877171	64.277000
42.401290	0.855739	64.323000
42.520445	0.826275	64.369000
42.550614	0.733302	64.546000
42.580595	0.712722	64.593000
42.612005	0.687262	64.638000
42.643584	0.658811	64.684000
42.674779	0.635577	64.730000
42.704752	0.611854	64.778000
42.736277	0.585334	64.824000
42.766742	0.555155	64.870000
42.796569	0.522510	64.916000
42.827534	0.495351	64.962000
42.858767	0.473920	65.009000
42.889712	0.458051	65.055000
42.920377	0.446533	65.100000
43.023739	0.438195	65.146000
43.052667	0.436176	65.301000
43.084269	0.437382	65.347000
43.115406	0.437690	65.394000
43.146528	0.438885	65.440000
43.253493	0.431819	65.487000
43.283624	0.405691	65.648000
43.315598	0.384105	65.694000
43.346386	0.360204	65.739000
43.377274	0.347469	65.786000
43.407754	0.345188	65.832000
43.439218	0.355337	65.878000
43.469306	0.369747	65.925000
43.499736	0.378029	65.971000
43.530708	0.381741	66.018000
43.562065	0.383999	66.064000
43.593444	0.383596	66.110000
43.623621	0.386682	66.156000
43.654301	0.398483	66.202000
43.756832	0.406914	66.248000
43.788346	0.411095	66.403000
43.818750	0.412545	66.450000
43.850209	0.404874	66.496000
43.880813	0.397900	66.542000
43.987544	0.409729	66.588000
44.018754	0.444066	66.748000
44.049853	0.439529	66.794000
44.080667	0.434387	66.841000
44.110379	0.410186	66.887000
44.141067	0.375664	66.933000
44.171601	0.331085	66.979000
44.202354	0.282277	67.025000
44.233568	0.236212	67.071000
44.265174	0.193128	67.118000
44.296157	0.157361	67.164000
44.327237	0.120583	67.210000
44.357683	0.090000	67.257000
44.388996	0.064662	67.303000
44.490918	0.027913	67.349000
44.522573	0.019376	67.504000
44.553791	-0.003010	67.551000
44.585078	-0.021690	67.597000
44.615816	-0.028767	67.644000
44.720591	-0.022917	67.689000
44.752428	0.025342	67.848000
44.782774	0.073932	67.894000
44.813381	0.113443	67.941000
44.843761	0.140796	67.987000
44.875352	0.174488	68.034000
44.906228	0.207009	68.080000
44.937246	0.241176	68.126000
44.968014	0.260751	68.171000
44.999378	0.285512	68.218000
45.030181	0.300481	68.264000
45.060604	0.307045	68.310000
45.091445	0.308784	68.356000
45.122236	0.297003	68.403000
45.597089	0.114150	68.449000
45.628115	0.217062	69.160000
45.658269	0.217708	69.206000
45.688127	0.216500	69.252000
45.719145	0.227179	69.298000
45.749955	0.249298	69.343000
45.780835	0.274218	69.390000
45.812906	0.292241	69.437000
45.843701	0.308605	69.484000
45.947885	0.299114	69.530000
45.977770	0.288354	69.685000
46.007908	0.281928	69.732000
46.039088	0.280538	69.778000
46.069849	0.282999	69.824000
46.188397	0.290051	69.870000
46.219169	0.321043	70.047000
46.250617	0.324617	70.093000
46.281063	0.327809	70.138000
46.312000	0.329049	70.185000
46.342650	0.330204	70.231000
46.373003	0.329197	70.278000
46.403699	0.327989	70.324000
46.434225	0.331595	70.370000
46.465854	0.337936	70.417000
46.495800	0.348339	70.463000
46.527794	0.359483	70.510000
46.558651	0.371360	70.555000
46.589738	0.381836	70.602000
46.692182	0.404655	70.648000
46.722865	0.394759	70.802000
46.754095	0.381338	70.849000
46.784640	0.369418	70.895000
46.815789	0.365760	70.942000
46.922028	0.372345	70.988000
46.953142	0.418394	71.147000
46.984003	0.427490	71.194000
47.015075	0.436463	71.240000
47.046070	0.444735	71.286000
47.075736	0.448183	71.333000
47.107173	0.452848	71.379000
47.138079	0.459415	71.426000
47.169774	0.470428	71.472000
47.200819	0.477526	71.519000
47.232037	0.488529	71.566000
47.262682	0.497635	71.612000
47.294203	0.507339	71.658000
47.324307	0.516447	71.705000
47.427012	0.535615	71.751000
47.456977	0.537974	71.906000
47.489332	0.539753	71.952000
47.520658	0.546405	71.999000
47.551438	0.548626	72.045000
47.656352	0.547961	72.091000
47.685153	0.525946	72.248000
47.717005	0.527820	72.294000
47.747162	0.528825	72.340000
47.778442	0.522816	72.386000
47.809049	0.497098	72.432000
47.840390	0.456126	72.479000
47.872076	0.418900	72.525000
47.902576	0.388887	72.571000
47.933928	0.357573	72.617000
47.964443	0.331986	72.664000
47.994746	0.323099	72.710000
48.024950	0.319759	72.756000
48.055473	0.304776	72.803000
48.158853	0.218101	72.849000
48.190555	0.214897	73.003000
48.222215	0.217305	73.050000
48.252784	0.228715	73.096000
48.282138	0.248005	73.142000
48.388101	0.245767	73.189000
48.419603	0.170564	73.348000
48.450410	0.145198	73.394000
48.481620	0.134206	73.440000
48.512596	0.138702	73.486000
48.544229	0.143939	73.534000
48.575112	0.155469	73.579000
48.606119	0.170184	73.626000
48.636200	0.189926	73.673000
48.667099	0.204315	73.718000
48.697982	0.221367	73.765000
48.728317	0.237538	73.811000
48.758789	0.255259	73.857000
48.790795	0.266232	73.902000
49.263642	0.348284	73.949000
49.294603	0.442638	74.660000
49.325640	0.430939	74.706000
49.356090	0.422275	74.752000
49.387661	0.420360	74.798000
49.418952	0.422317	74.844000
49.449517	0.418107	74.890000
49.479586	0.407487	74.936000
49.510381	0.396337	74.982000
49.614476	0.356090	75.029000
49.645737	0.333375	75.185000
49.676090	0.310289	75.231000
49.706916	0.282235	75.277000
49.738338	0.253264	75.324000
49.856455	0.225735	75.370000
49.887731	0.232002	75.548000
49.918664	0.233106	75.594000
49.947954	0.241388	75.640000
49.979468	0.253507	75.686000
50.009783	0.262893	75.732000
50.041012	0.257485	75.779000
50.071496	0.238853	75.825000
50.102879	0.221515	75.871000
50.133920	0.210147	75.917000
50.165134	0.202576	75.963000
50.195834	0.191187	76.010000
50.227347	0.182852	76.056000
50.257374	0.177714	76.103000
50.360356	0.205769	76.148000
50.391570	0.215260	76.304000
50.421746	0.234018	76.349000
50.453133	0.253424	76.396000
50.483936	0.274409	76.442000
50.590890	0.298265	76.488000
50.620994	0.375654	76.648000
50.650494	0.378898	76.694000
50.682139	0.381019	76.740000
50.712531	0.383491	76.787000
50.743783	0.382535	76.833000
50.773987	0.390659	76.879000
50.806061	0.393904	76.925000
50.837076	0.387466	76.972000
50.868186	0.390118	77.018000
50.898029	0.394410	77.065000
50.929331	0.397384	77.111000
50.959131	0.397741	77.157000
50.990361	0.394665	77.203000
51.095052	0.391603	77.249000
51.125255	0.395488	77.405000
51.156888	0.388071	77.451000
51.187783	0.381104	77.498000
51.218413	0.381369	77.544000
51.322443	0.388993	77.590000
51.353684	0.393797	77.748000
51.384564	0.385739	77.794000
51.415459	0.372546	77.840000
51.446673	0.363024	77.887000
51.477023	0.363151	77.933000
51.509405	0.356195	77.980000
51.540166	0.360427	78.026000
51.571053	0.361338	78.072000
51.600427	0.367392	78.119000
51.631729	0.379894	78.165000
51.662271	0.374169	78.211000
51.693600	0.364234	78.258000
51.724292	0.363480	78.304000
51.828514	0.368316	78.350000
51.859356	0.361985	78.505000
51.889709	0.352123	78.551000
51.920420	0.340034	78.597000
51.950750	0.327755	78.644000
52.056844	0.318412	78.690000
52.086894	0.315158	78.848000
52.118626	0.307375	78.894000
52.149418	0.302614	78.940000
52.181223	0.296790	78.986000
52.211454	0.277539	79.033000
52.242226	0.259224	79.080000
52.272480	0.248950	79.125000
52.303440	0.235917	79.172000
52.334159	0.221144	79.218000
52.365092	0.205939	79.264000
52.396606	0.181792	79.310000
52.426598	0.147302	79.357000
52.459311	0.114171	79.403000
52.931743	0.021629	79.450000
52.962504	-0.146894	80.159000
52.993503	-0.165525	80.205000
53.023407	-0.186044	80.252000
53.055082	-0.209108	80.298000
53.085136	-0.233423	80.344000
53.115535	-0.257362	80.390000
53.145432	-0.280972	80.436000
53.177072	-0.302987	80.482000
53.282213	-0.327412	80.528000
53.313427	-0.313947	80.685000
53.344233	-0.284318	80.732000
53.374602	-0.248619	80.778000
53.406377	-0.206702	80.824000
53.523934	-0.153554	80.871000
53.554549	-0.009706	81.048000
53.584745	-0.000598	81.094000
53.615563	-0.009991	81.140000
53.646881	-0.017723	81.186000
53.677822	-0.021352	81.233000
53.708641	-0.033499	81.279000
53.739839	-0.045343	81.325000
53.771249	-0.061949	81.372000
53.802248	-0.069329	81.418000
53.831722	-0.050062	81.463000
53.861365	-0.031571	81.509000
53.892805	-0.021669	81.555000
53.924354	-0.011282	81.602000
54.028034	0.031245	81.648000
54.058511	0.038682	81.803000
54.089463	0.050275	81.850000
54.120382	0.062555	81.896000
54.150447	0.080227	81.942000
54.256079	0.104079	81.988000
54.287593	0.160270	82.148000
54.318876	0.163646	82.194000
54.350278	0.169791	82.241000
54.380955	0.170258	82.286000
54.411727	0.165678	82.333000
54.442948	0.157849	82.379000
54.473456	0.151344	82.426000
54.504620	0.152476	82.472000
54.534816	0.158251	82.519000
54.565619	0.168173	82.565000
54.596629	0.185174	82.612000
54.627885	0.218970	82.658000
54.658254	0.259022	82.704000
54.762553	0.321287	82.749000
54.793667	0.339505	82.905000
54.823072	0.360214	82.951000
54.854805	0.382164	82.998000
54.885243	0.395216	83.044000
54.990329	0.414489	83.091000
55.021248	0.436927	83.247000
55.052108	0.437180	83.294000
55.083841	0.441475	83.339000
55.114897	0.448310	83.385000
55.144947	0.454297	83.432000
55.175309	0.451726	83.479000
55.206807	0.428855	83.526000
55.237306	0.406313	83.573000
55.268547	0.389185	83.617000
55.299243	0.367415	83.664000
55.330649	0.340427	83.711000
55.361433	0.308858	83.757000
55.393177	0.279478	83.804000
55.495040	0.212620	83.850000
55.525474	0.192154	84.005000
55.556723	0.160823	84.051000
55.587426	0.133255	84.097000
55.618414	0.109126	84.143000
55.724376	0.094434	84.189000
55.754983	0.080426	84.348000
55.786735	0.082087	84.394000
55.817142	0.079199	84.441000
55.847169	0.073942	84.487000
55.876862	0.070007	84.532000
55.908794	0.065042	84.579000
55.940020	0.074250	84.624000
55.971100	0.096347	84.671000
56.001196	0.123713	84.718000
56.033166	0.147950	84.764000
56.063896	0.164292	84.810000
56.094799	0.176794	84.857000
56.124081	0.188823	84.903000
56.598872	0.299028	84.949000
56.630932	0.314976	85.660000
56.661677	0.296027	85.707000
56.692941	0.280347	85.753000
56.722576	0.255163	85.799000
56.753417	0.227517	85.846000
56.784620	0.200212	85.892000
56.815481	0.166924	85.938000
56.846138	0.151554	85.984000
56.950129	0.140332	86.031000
56.981631	0.148308	86.186000
57.011689	0.161668	86.232000
57.042062	0.167814	86.279000
57.072362	0.160717	86.325000
57.189930	0.145431	86.372000
57.221885	0.047472	86.548000
57.252804	0.007084	86.594000
57.283468	-0.024968	86.640000
57.314064	-0.050315	86.687000
57.345966	-0.081003	86.733000
57.377406	-0.102381	86.779000
57.407226	-0.114863	86.825000
57.437084	-0.102869	86.871000
57.467821	-0.111278	86.917000
57.499128	-0.125795	86.963000
57.530019	-0.124629	87.010000
57.561502	-0.105137	87.056000
57.592240	-0.073241	87.102000
57.695778	0.011072	87.148000
57.726677	0.009347	87.304000
57.757080	0.005400	87.350000
57.786877	-0.000630	87.397000
57.818464	-0.011831	87.443000
57.924730	-0.034892	87.489000
57.955567	-0.096190	87.648000
57.986670	-0.078120	87.694000
58.017142	-0.056244	87.741000
58.049413	-0.018136	87.787000
58.080235	0.029371	87.834000
58.110358	0.081917	87.880000
58.140227	0.124930	87.927000
58.171853	0.154517	87.972000
58.202805	0.158916	88.019000
58.233923	0.147355	88.065000
58.264173	0.127458	88.112000
58.295983	0.106627	88.158000
58.326978	0.083495	88.203000
58.428645	0.077465	88.250000
58.459444	0.087588	88.405000
58.489802	0.103689	88.451000
58.521527	0.114617	88.497000
58.552983	0.133963	88.544000
58.658415	0.161107	88.589000
58.689203	0.258695	88.747000
58.719360	0.307627	88.794000
58.750209	0.355092	88.840000
58.780463	0.412056	88.886000
58.811811	0.464982	88.933000
58.842027	0.528358	88.979000
58.873479	0.585163	89.025000
58.904889	0.641461	89.070000
58.935338	0.691513	89.117000
58.965834	0.733970	89.162000
58.996449	0.774815	89.209000
59.027567	0.813086	89.255000
59.057644	0.846607	89.302000
59.161424	0.917186	89.347000
59.192638	0.922760	89.503000
59.223326	0.926908	89.549000
59.254667	0.934179	89.595000
59.284847	0.943424	89.642000
59.391824	0.947846	89.687000
59.421989	0.974090	89.847000
59.451670	0.979211	89.894000
59.483515	0.987483	89.940000
59.514917	0.989196	89.987000
59.545812	0.986298	90.032000
59.576696	0.974100	90.079000
59.607364	0.950194	90.125000
59.637914	0.931353	90.170000
59.666938	0.923205	90.216000
59.697372	0.915641	90.261000
59.728448	0.905423	90.307000
59.758721	0.888868	90.353000
59.789255	0.873657	90.399000
60.034007	0.638142	90.444000
60.276440	0.630317	90.812000
60.308057	0.821622	91.180000
60.338034	0.838462	91.226000
60.369137	0.846575	91.272000
60.398453	0.872270	91.319000
60.430289	0.913864	91.364000
60.461104	0.957726	91.411000
60.492199	0.999447	91.457000
60.522833	1.029002	91.503000
60.624508	1.038417	91.550000
60.655703	1.040712	91.704000
60.686529	1.043506	91.749000
60.718277	1.038746	91.796000
60.748519	1.038247	91.842000
60.855084	1.041663	91.889000
60.885983	1.110453	92.048000
60.917397	1.157362	92.094000
60.948339	1.214571	92.140000
60.977870	1.276577	92.185000
61.008842	1.335807	92.232000
61.040006	1.390267	92.279000
61.070459	1.439921	92.325000
61.101243	1.483349	92.371000
61.133003	1.521119	92.418000
61.163875	1.552869	92.464000
61.195016	1.578638	92.511000
61.225369	1.602917	92.557000
61.257117	1.624539	92.603000
61.358643	1.667209	92.649000
61.390352	1.647582	92.804000
61.421582	1.607635	92.850000
61.451943	1.556856	92.897000
61.483311	1.504991	92.943000
61.588985	1.464663	92.989000
61.620507	1.473073	93.148000
61.651260	1.472586	93.194000
61.680979	1.476667	93.240000
61.710899	1.484504	93.287000
61.742485	1.494704	93.333000
61.774076	1.506073	93.379000
61.804833	1.514736	93.426000
61.835985	1.532296	93.472000
61.867138	1.543972	93.518000
61.898509	1.557471	93.565000
61.929024	1.570250	93.611000
61.960035	1.571617	93.658000
61.989904	1.582084	93.704000
62.093661	1.582857	93.750000
62.124726	1.560536	93.905000
62.155871	1.532711	93.951000
62.187008	1.496847	93.998000
62.217853	1.453219	94.044000
62.322721	1.404208	94.091000
62.352340	1.230529	94.248000
62.383574	1.196162	94.294000
62.414023	1.171105	94.341000
62.445502	1.150292	94.386000
62.476378	1.134259	94.433000
62.507185	1.114291	94.479000
62.538284	1.091577	94.525000
62.569709	1.063285	94.571000
62.600708	1.034694	94.618000
62.630720	1.009633	94.664000
62.660651	0.990985	94.710000
62.691818	0.970813	94.757000
62.723332	0.945306	94.803000
62.826694	0.847685	94.849000
62.857408	0.822758	95.003000
62.885910	0.805918	95.048000
62.917766	0.794200	95.095000
62.948480	0.784784	95.142000
63.055042	0.775229	95.188000
63.086064	0.750607	95.347000
63.116187	0.731593	95.394000
63.148293	0.714917	95.440000
63.179115	0.704027	95.486000
63.210475	0.706412	95.533000
63.240671	0.718882	95.579000
63.271293	0.732102	95.625000
63.302434	0.744647	95.672000
63.332707	0.751487	95.718000
63.363514	0.757626	95.765000
63.395243	0.765208	95.811000
63.426826	0.785260	95.858000
63.457294	0.813945	95.904000
63.930684	0.919398	95.950000
63.961268	0.848545	96.661000
63.992943	0.833628	96.707000
64.024061	0.822450	96.753000
64.054960	0.816682	96.800000
64.085832	0.814729	96.846000
64.117161	0.815684	96.892000
64.147726	0.819470	96.938000
64.177661	0.819481	96.984000
64.281453	0.748570	97.030000
64.312286	0.720303	97.186000
64.343354	0.686423	97.232000
64.374392	0.655829	97.278000
64.405148	0.629065	97.324000
64.523343	0.604016	97.370000
64.554077	0.604267	97.548000
64.584772	0.621589	97.594000
64.615460	0.637390	97.641000
64.645825	0.656837	97.687000
64.676182	0.672034	97.733000
64.707769	0.678088	97.779000
64.738972	0.675384	97.825000
64.770474	0.679594	97.872000
64.801331	0.697599	97.918000
64.832164	0.704726	97.964000
64.863374	0.702732	98.011000
64.893478	0.696211	98.057000
64.923728	0.673040	98.103000
65.027063	0.572183	98.149000
65.058911	0.534250	98.305000
65.089791	0.504230	98.351000
65.121124	0.487099	98.397000
65.152034	0.466566	98.444000
65.255661	0.443040	98.491000
65.286771	0.381093	98.648000
65.317336	0.371337	98.694000
65.348769	0.372716	98.740000
65.379395	0.382101	98.787000
65.411551	0.387986	98.833000
65.442200	0.389057	98.880000
65.473702	0.393988	98.926000
65.504006	0.414075	98.973000
65.535546	0.434429	99.019000
65.565635	0.444257	99.066000
65.595992	0.443030	99.112000
65.626173	0.435656	99.158000
65.657875	0.430588	99.203000
65.761509	0.377849	99.249000
65.792404	0.372197	99.404000
65.823438	0.368793	99.450000
65.852512	0.381666	99.497000
65.884275	0.396738	99.544000
65.989339	0.426993	99.590000
66.020587	0.510197	99.748000
66.051851	0.556361	99.794000
66.082263	0.610658	99.841000
66.113404	0.660084	99.887000
66.144491	0.702298	99.932000
66.175340	0.741413	99.979000
66.204645	0.770395	100.025000
66.235732	0.785728	100.072000
66.266366	0.789852	100.118000
66.297753	0.792408	100.163000
66.328218	0.792049	100.210000
66.360081	0.802153	100.256000
66.390807	0.821549	100.302000
66.492436	0.840672	100.349000
66.523692	0.845655	100.503000
66.554442	0.842770	100.549000
66.586021	0.839848	100.595000
66.616309	0.834716	100.641000
66.723693	0.827215	100.687000
66.754580	0.856711	100.848000
66.785691	0.859978	100.894000
66.816678	0.870259	100.941000
66.846997	0.864877	100.987000
66.877347	0.865669	101.033000
66.908188	0.884890	101.079000
66.938845	0.908218	101.126000
66.969994	0.925904	101.172000
67.001311	0.953168	101.218000
67.031653	0.987654	101.264000
67.063486	1.019946	101.310000
67.094051	1.046626	101.357000
67.124277	1.062384	101.403000
67.598708	1.176002	101.449000
67.628781	1.145901	102.160000
67.660921	1.147228	102.207000
67.691378	1.159281	102.253000
67.722273	1.175399	102.299000
67.751363	1.186999	102.345000
67.782949	1.191696	102.391000
67.813676	1.189481	102.438000
67.845009	1.187264	102.483000
67.949911	1.168347	102.530000
67.980330	1.162536	102.686000
68.011955	1.159154	102.733000
68.042020	1.161847	102.779000
68.072178	1.165717	102.825000
68.190710	1.173543	102.871000
68.220906	1.188919	103.048000
68.251563	1.193691	103.095000
68.282927	1.202863	103.141000
68.313699	1.209512	103.187000
68.344111	1.214411	103.233000
68.375697	1.216076	103.279000
68.407077	1.212300	103.326000
68.437603	1.207794	103.372000
68.467330	1.196692	103.418000
68.498525	1.181889	103.465000
68.529628	1.164784	103.510000
68.560123	1.146941	103.557000
68.591295	1.123983	103.604000
68.695214	1.050168	103.650000
68.726501	1.041769	103.804000
68.757880	1.034979	103.851000
68.787784	1.035739	103.898000
68.817742	1.036671	103.944000
68.923520	1.043790	103.990000
68.954692	1.062988	104.148000
68.986102	1.059594	104.194000
69.016597	1.055682	104.241000
69.047808	1.044759	104.287000
69.078703	1.027277	104.333000
69.109583	1.002366	104.379000
69.139756	0.972915	104.426000
69.170343	0.951092	104.472000
69.201008	0.944905	104.518000
69.232464	0.949136	104.565000
69.263559	0.968282	104.611000
69.294231	0.995479	104.657000
69.325434	1.013611	104.704000
69.428415	1.145669	104.750000
69.459649	1.191050	104.905000
69.490190	1.233105	104.952000
69.521500	1.268728	104.999000
69.551804	1.298306	105.045000
69.657152	1.324339	105.090000
69.688416	1.385815	105.247000
69.719288	1.397652	105.294000
69.750268	1.408736	105.341000
69.779511	1.411901	105.386000
69.810206	1.424339	105.432000
69.841309	1.438196	105.478000
69.872365	1.439551	105.524000
69.902723	1.431056	105.570000
69.934563	1.418924	105.617000
69.965658	1.411042	105.664000
69.997006	1.398731	105.710000
70.027302	1.391346	105.757000
70.058082	1.401681	105.803000
70.160948	1.443465	105.849000
70.191797	1.461523	106.004000
70.223330	1.464461	106.050000
70.253526	1.457066	106.096000
70.285367	1.445537	106.143000
70.435809	1.433679	106.189000
70.466873	1.370748	106.416000
70.497215	1.371279	106.462000
70.528940	1.379763	106.508000
70.558705	1.389386	106.554000
70.589309	1.390458	106.601000
70.620473	1.387250	106.646000
70.651568	1.389125	106.693000
70.682440	1.411741	106.739000
70.712736	1.445293	106.785000
70.744845	1.486136	106.831000
70.775433	1.523686	106.877000
71.024169	1.788574	106.924000
71.269648	1.803852	107.298000
71.300935	1.882163	107.666000
71.331930	1.920049	107.713000
71.363501	1.956029	107.759000
71.394266	1.986272	107.805000
71.424216	2.014373	107.852000
71.455680	2.036648	107.898000
71.485999	2.059267	107.945000
71.517332	2.082796	107.991000
71.620644	2.177944	108.037000
71.651669	2.211856	108.191000
71.682396	2.249804	108.238000
71.713398	2.277307	108.284000
71.743087	2.302622	108.330000
71.857778	2.323079	108.376000
71.889203	2.384542	108.548000
71.919346	2.385592	108.594000
71.951163	2.394935	108.640000
71.981689	2.391054	108.687000
72.012753	2.389123	108.733000
72.042650	2.405560	108.779000
72.073768	2.415273	108.826000
72.104778	2.421520	108.872000
72.135474	2.421190	108.919000
72.167199	2.417394	108.965000
72.197909	2.413397	109.012000
72.229066	2.425846	109.057000
72.259669	2.453762	109.104000
72.362904	2.560533	109.151000
72.392600	2.570910	109.304000
72.423565	2.583688	109.350000
72.455221	2.591694	109.397000
72.486070	2.597851	109.444000
72.591863	2.617137	109.490000
72.622643	2.705934	109.648000
72.653853	2.706188	109.695000
72.684848	2.714397	109.741000
72.714944	2.737077	109.787000
72.745064	2.760570	109.833000
72.776673	2.780322	109.880000
72.807714	2.816682	109.927000
72.838564	2.844636	109.973000
72.869582	2.873161	110.019000
72.901268	2.906815	110.065000
72.932678	2.942306	110.112000
72.962605	2.976960	110.158000
72.992870	3.000338	110.203000
73.095383	3.043170	110.250000
73.126770	3.055517	110.405000
73.157957	3.065451	110.451000
73.188537	3.068783	110.497000
73.219317	3.067799	110.543000
73.324972	3.073246	110.590000
73.355921	3.161568	110.748000
73.386502	3.190055	110.795000
73.416913	3.213057	110.841000
73.447646	3.235940	110.887000
73.479064	3.264560	110.934000
73.510405	3.308536	110.980000
73.541423	3.361171	111.026000
73.571996	3.394256	111.073000
73.603690	3.408433	111.119000
73.634869	3.417011	111.164000
73.664435	3.436615	111.212000
73.694170	3.454174	111.257000
73.725649	3.476135	111.303000
73.828961	3.583741	111.349000
73.860356	3.617635	111.503000
73.890605	3.652080	111.550000
73.920871	3.697740	111.596000
73.952027	3.722724	111.643000
74.057559	3.734643	111.689000
74.088862	3.821338	111.849000
74.120149	3.859615	111.895000
74.150906	3.900288	111.941000
74.182154	3.944464	111.988000
74.213026	3.996055	112.034000
74.243799	4.056174	112.079000
74.274709	4.110391	112.125000
74.305258	4.152520	112.172000
74.335892	4.192187	112.218000
74.366488	4.245792	112.265000
74.396784	4.280473	112.311000
74.427940	4.306839	112.356000
74.458712	4.348104	112.402000
74.933419	4.474611	112.449000
74.963201	4.819576	113.160000
74.994142	4.833750	113.206000
75.025736	4.848929	113.253000
75.056977	4.856186	113.300000
75.088541	4.866374	113.345000
75.119059	4.881543	113.392000
75.150930	4.888789	113.438000
75.181664	4.910030	113.485000
75.284861	4.998373	113.530000
75.315310	5.048315	113.686000
75.346543	5.106933	113.732000
75.377492	5.160324	113.779000
75.409148	5.213564	113.826000
75.526813	5.269453	113.872000
75.557600	5.542913	114.048000
75.588181	5.622325	114.095000
75.619298	5.696377	114.141000
75.649279	5.760046	114.187000
75.679030	5.820906	114.233000
75.709548	5.873874	114.279000
75.741150	5.919043	114.324000
75.772284	5.964196	114.370000
75.803778	6.010503	114.417000
75.833967	6.055778	114.464000
75.866022	6.100672	114.509000
75.895864	6.141686	114.556000
75.925907	6.189764	114.602000
76.029388	6.306194	114.648000
76.060075	6.339732	114.803000
76.091186	6.370441	114.849000
76.122242	6.398213	114.895000
76.153376	6.422401	114.942000
76.260153	6.446543	114.988000
76.291071	6.544554	115.149000
76.320714	6.586455	115.194000
76.351931	6.641135	115.241000
76.382896	6.700023	115.287000
76.413837	6.751982	115.332000
76.444494	6.797629	115.379000
76.475819	6.839442	115.425000
76.506853	6.892622	115.472000
76.536611	6.956865	115.518000
76.567030	7.024124	115.563000
76.597556	7.094528	115.610000
76.628682	7.168799	115.655000
76.658770	7.242676	115.702000
76.763019	7.434261	115.748000
76.793907	7.488749	115.903000
76.824579	7.543265	115.948000
76.854937	7.603295	115.995000
76.884864	7.666077	116.041000
76.992317	7.732981	116.087000
77.022943	7.966308	116.249000
77.054514	8.041226	116.295000
77.085279	8.118599	116.340000
77.116220	8.211019	116.387000
77.147192	8.315886	116.433000
77.177841	8.423166	116.478000
77.207899	8.527974	116.523000
77.237281	8.633715	116.569000
77.267507	8.738408	116.615000
77.298771	8.839707	116.660000
77.329889	8.941187	116.707000
77.360938	9.045659	116.752000
77.392095	9.146409	116.799000
77.493724	9.425754	116.845000
77.524734	9.497949	117.000000
77.556075	9.567630	117.046000
77.587085	9.631893	117.092000
77.617919	9.700980	117.139000
77.725772	9.764742	117.186000
77.757090	10.020439	117.348000
77.788753	10.099471	117.394000
77.819833	10.185186	117.441000
77.850067	10.283865	117.487000
77.881377	10.381044	117.533000
77.911896	10.454312	117.579000
77.941884	10.524606	117.626000
77.972188	10.598271	117.671000
78.003621	10.677290	117.718000
78.035354	10.753627	117.764000
78.065872	10.828510	117.810000
78.097152	10.905842	117.857000
78.127885	10.983412	117.903000
78.601609	11.642128	117.950000
78.632604	12.455832	118.661000
78.663338	12.546415	118.706000
78.693634	12.635412	118.752000
78.724214	12.731015	118.797000
78.753964	12.824443	118.843000
78.784667	12.919367	118.890000
78.815009	13.015836	118.935000
78.846542	13.127470	118.981000
78.952643	13.573580	119.027000
78.984306	13.698459	119.187000
79.015094	13.820277	119.233000
79.045690	13.945878	119.280000
79.076769	14.069207	119.326000
79.194649	14.183397	119.371000
79.225045	14.641154	119.549000
79.255940	14.775534	119.595000
79.285721	14.904495	119.641000
79.317361	15.032898	119.687000
79.347934	15.167979	119.733000
79.379029	15.286989	119.779000
79.410101	15.398136	119.826000
79.441703	15.524354	119.872000
79.471837	15.639027	119.919000
79.501680	15.767144	119.964000
79.532936	15.891379	120.010000
79.563670	16.005765	120.057000
79.594596	16.116504	120.103000
79.698876	16.492842	120.150000
79.730124	16.617290	120.306000
79.760935	16.739542	120.352000
79.791515	16.860787	120.398000
79.821527	16.977479	120.443000
79.927043	17.088369	120.490000
79.957685	17.455529	120.649000
79.988281	17.557409	120.695000
80.020421	17.670577	120.741000
80.051577	17.799296	120.788000
80.082603	17.935686	120.834000
80.112737	18.068859	120.880000
80.144762	18.207656	120.927000
80.175104	18.341465	120.973000
80.205884	18.452877	121.019000
80.235050	18.553312	121.066000
80.266752	18.646616	121.112000
80.297294	18.721214	121.158000
80.328765	18.786329	121.203000
80.432023	19.076427	121.250000
80.461651	19.199923	121.405000
80.493145	19.323969	121.451000
80.523149	19.453674	121.497000
80.554644	19.578437	121.543000
80.660913	19.710890	121.590000
80.691501	20.161389	121.749000
80.723219	20.294123	121.795000
80.754175	20.431459	121.842000
80.785447	20.562290	121.888000
80.815750	20.693589	121.935000
80.846284	20.824024	121.981000
80.876358	20.950966	122.027000
80.907937	21.086707	122.073000
80.938232	21.208200	122.120000
80.970295	21.316935	122.166000
81.000799	21.423687	122.213000
81.032147	21.530878	122.259000
81.062927	21.648557	122.305000
81.165063	22.096965	122.352000
81.195989	22.235216	122.505000
81.226892	22.380228	122.552000
81.258033	22.533144	122.599000
81.288252	22.688851	122.644000
81.394269	22.847227	122.691000
81.425486	23.384655	122.849000
81.456581	23.563037	122.895000
81.487115	23.747141	122.941000
81.516558	23.929486	122.987000
81.547699	24.106083	123.033000
81.578618	24.286697	123.079000
81.610105	24.471273	123.125000
81.640093	24.666153	123.172000
81.672387	24.858208	123.218000
81.703328	25.063182	123.265000
81.734384	25.269746	123.311000
81.763958	25.475198	123.358000
81.794853	25.681847	123.403000
82.269960	27.331255	123.450000
82.300463	28.977838	124.161000
82.332019	29.176525	124.207000
82.361239	29.365688	124.254000
82.393218	29.551915	124.300000
82.423199	29.736248	124.346000
82.454086	29.913128	124.392000
82.484482	30.093962	124.438000
82.515846	30.285542	124.483000
82.620448	31.038598	124.529000
82.650683	31.286471	124.685000
82.681455	31.540349	124.733000
82.711466	31.790334	124.779000
82.742876	32.049597	124.825000
82.860871	32.317653	124.872000
82.891713	33.296906	125.049000
82.922623	33.537571	125.095000
82.953273	33.791671	125.140000
82.984383	34.049995	125.187000
83.015939	34.309301	125.233000
83.046596	34.557724	125.279000
83.076116	34.802027	125.325000
83.106842	35.046904	125.372000
83.137929	35.268042	125.418000
83.168793	35.474781	125.464000
83.200165	35.677757	125.510000
83.231122	35.889607	125.556000
83.262324	36.101812	125.603000
83.365536	36.820420	125.648000
83.396055	37.047299	125.804000
83.425982	37.277917	125.851000
83.457422	37.511168	125.897000
83.488671	37.744665	125.943000
83.594480	37.983638	125.989000
83.625659	38.852424	126.149000
83.656678	39.116564	126.194000
83.687504	39.391371	126.241000
83.718768	39.661434	126.287000
83.749647	39.937509	126.333000
83.779375	40.209522	126.380000
83.810101	40.486953	126.426000
83.841188	40.766970	126.472000
83.871999	41.053297	126.518000
83.903255	41.341907	126.564000
83.934511	41.635837	126.610000
83.965468	41.923996	126.656000
83.995871	42.219521	126.703000
84.098592	43.257131	126.749000
84.129848	43.571465	126.905000
84.159967	43.864714	126.950000
84.191431	44.154027	126.996000
84.222134	44.448795	127.043000
84.329072	44.747058	127.089000
84.359898	45.864661	127.249000
84.390371	46.195742	127.294000
84.421204	46.517666	127.341000
84.451185	46.818565	127.387000
84.482541	47.095018	127.434000
84.512353	47.371191	127.480000
84.543955	47.635159	127.526000
84.575189	47.917486	127.572000
