Sample	2mm tape 2
date	08/01/2025
	
Temperature (K)	77.00
Angle (deg.)	180.000000
field / T	0.000000
	
		
Approx. trace time (s)	60.0	
		
Current / A	V1  -sample/ uV	time/s
0.002198	-1.066382	0.000000
0.002730	-1.082783	0.047000
0.002378	-1.101252	0.093000
0.002258	-1.117407	0.139000
0.002288	-1.134305	0.186000
0.002623	-1.149060	0.232000
0.002491	-1.165160	0.278000
0.002210	-1.206516	0.435000
0.002109	-1.212400	0.481000
0.002198	-1.234949	0.528000
0.002097	-1.246758	0.685000
0.007219	-1.261210	0.731000
0.037711	-1.277321	0.777000
0.068671	-1.293790	0.824000
0.099722	-1.310735	0.870000
0.131422	-1.325283	0.917000
0.161036	-1.337796	0.963000
0.191711	-1.343477	1.009000
0.222162	-1.352403	1.056000
0.253947	-1.358832	1.102000
0.285058	-1.360800	1.148000
0.316606	-1.364226	1.195000
0.347734	-1.363374	1.242000
0.378426	-1.365916	1.288000
0.409289	-1.366644	1.334000
0.511619	-1.368250	1.380000
0.543460	-1.369019	1.536000
0.574319	-1.365748	1.583000
0.678778	-1.351048	1.629000
0.710633	-1.351070	1.785000
0.741076	-1.356259	1.831000
0.772365	-1.368104	1.878000
0.802659	-1.386384	1.925000
0.832980	-1.404774	1.971000
0.863929	-1.426859	2.017000
0.895416	-1.448959	2.064000
0.926220	-1.471844	2.110000
0.957183	-1.494481	2.157000
0.988375	-1.518987	2.203000
1.019642	-1.541406	2.249000
1.050465	-1.561114	2.295000
1.081225	-1.582894	2.342000
1.111272	-1.606139	2.388000
1.141571	-1.629800	2.434000
1.246207	-1.653576	2.480000
1.277288	-1.729041	2.636000
1.308651	-1.749063	2.682000
1.413112	-1.815342	2.728000
1.443591	-1.831858	2.885000
1.473952	-1.850421	2.932000
1.504089	-1.867776	2.978000
1.535843	-1.883457	3.024000
1.566483	-1.900376	3.070000
1.597922	-1.913524	3.116000
1.628667	-1.928356	3.163000
1.659954	-1.941786	3.209000
1.690333	-1.956236	3.255000
1.720531	-1.967936	3.301000
1.751955	-1.980783	3.347000
1.782534	-1.995939	3.394000
1.813509	-2.007147	3.440000
1.843868	-2.018399	3.486000
1.875485	-2.029915	3.533000
2.120750	-2.038180	3.579000
2.151814	-2.108406	3.947000
2.182887	-2.112864	3.994000
2.214549	-2.114692	4.040000
2.245424	-2.112655	4.087000
2.276157	-2.115046	4.133000
2.305732	-2.116003	4.180000
2.337126	-2.117157	4.225000
2.367734	-2.118643	4.272000
2.399021	-2.125029	4.319000
2.429335	-2.132014	4.365000
2.461606	-2.141192	4.411000
2.492194	-2.149197	4.457000
2.523601	-2.156808	4.503000
2.553875	-2.158296	4.550000
2.585381	-2.156434	4.596000
2.615369	-2.159314	4.642000
2.719593	-2.171217	4.689000
2.750421	-2.213702	4.845000
2.780860	-2.220922	4.891000
3.026226	-2.202117	4.938000
3.057839	-2.197387	5.306000
3.089010	-2.194322	5.352000
3.120311	-2.195588	5.398000
3.150108	-2.199275	5.445000
3.180641	-2.207024	5.491000
3.211385	-2.219514	5.537000
3.242138	-2.232671	5.583000
3.273438	-2.249968	5.630000
3.304691	-2.263602	5.675000
3.335747	-2.277634	5.722000
3.445635	-2.289427	5.769000
3.477094	-2.355490	5.935000
3.507838	-2.380838	5.982000
3.612799	-2.451388	6.028000
3.645545	-2.467606	6.185000
3.675749	-2.486155	6.232000
3.706720	-2.502600	6.278000
3.735565	-2.517219	6.324000
3.767122	-2.529619	6.369000
3.797514	-2.537769	6.416000
3.828958	-2.542253	6.462000
3.859509	-2.544340	6.509000
3.891359	-2.548357	6.555000
3.922734	-2.552877	6.601000
3.953807	-2.556579	6.648000
3.984883	-2.561775	6.694000
4.015363	-2.566238	6.741000
4.045919	-2.569354	6.787000
4.076360	-2.566421	6.834000
4.181081	-2.562390	6.880000
4.211847	-2.532218	7.036000
4.243169	-2.525274	7.082000
4.348115	-2.518016	7.129000
4.378619	-2.514408	7.285000
4.409608	-2.527916	7.332000
4.439288	-2.542770	7.379000
4.471043	-2.561960	7.425000
4.502004	-2.580642	7.471000
4.532975	-2.602997	7.518000
4.563560	-2.628991	7.564000
4.595619	-2.656328	7.611000
4.626211	-2.685758	7.657000
4.657280	-2.716562	7.703000
4.687410	-2.743371	7.749000
4.718058	-2.769519	7.795000
4.748984	-2.792331	7.842000
4.780165	-2.814347	7.889000
4.810831	-2.832339	7.935000
4.914957	-2.846868	7.981000
4.947023	-2.889823	8.137000
4.977575	-2.904282	8.183000
5.080388	-2.958735	8.230000
5.111575	-2.974602	8.385000
5.142007	-2.987265	8.432000
5.173601	-2.999752	8.478000
5.204663	-3.013555	8.524000
5.235394	-3.026821	8.570000
5.265669	-3.038288	8.617000
5.297222	-3.052303	8.663000
5.328029	-3.066137	8.709000
5.358370	-3.078536	8.755000
5.388795	-3.093797	8.802000
5.420157	-3.107007	8.848000
5.451530	-3.120245	8.895000
5.482399	-3.130081	8.941000
5.513253	-3.139634	8.987000
5.544817	-3.143987	9.034000
5.789703	-3.149753	9.079000
5.821137	-3.202621	9.449000
5.852218	-3.206570	9.495000
5.882679	-3.213394	9.541000
5.913067	-3.215999	9.588000
5.943252	-3.220342	9.634000
5.974635	-3.224051	9.680000
6.005892	-3.227634	9.726000
6.036784	-3.227122	9.772000
6.067700	-3.223501	9.819000
6.098618	-3.222967	9.865000
6.129798	-3.218872	9.911000
6.160481	-3.212268	9.958000
6.190564	-3.205828	10.004000
6.221507	-3.199236	10.050000
6.252525	-3.190901	10.097000
6.284009	-3.180234	10.143000
6.387954	-3.174159	10.190000
6.419454	-3.143935	10.346000
6.450791	-3.132225	10.392000
6.695549	-3.044432	10.439000
6.726719	-3.036238	10.807000
6.758138	-3.032209	10.853000
6.788258	-3.026998	10.900000
6.818026	-3.024044	10.945000
6.849618	-3.021083	10.992000
6.880669	-3.016923	11.039000
6.911364	-3.013919	11.084000
6.942038	-3.009998	11.129000
6.973233	-3.007743	11.176000
7.003689	-3.006443	11.222000
7.114381	-3.000279	11.268000
7.145479	-2.984417	11.435000
7.176299	-2.976618	11.482000
7.281890	-2.949620	11.528000
7.311872	-2.942227	11.685000
7.342932	-2.927725	11.731000
7.372995	-2.909917	11.777000
7.404446	-2.898513	11.824000
7.435373	-2.895727	11.870000
7.466556	-2.895768	11.916000
7.497403	-2.899415	11.963000
7.528283	-2.901943	12.008000
7.559282	-2.900085	12.055000
7.589913	-2.891778	12.101000
7.619998	-2.880653	12.148000
7.650409	-2.865580	12.194000
7.682274	-2.840901	12.241000
7.712960	-2.801701	12.287000
7.744622	-2.757152	12.333000
7.848408	-2.725189	12.380000
7.879417	-2.678040	12.535000
7.910343	-2.669475	12.581000
8.013538	-2.633720	12.628000
8.045041	-2.618411	12.785000
8.075835	-2.598523	12.831000
8.107547	-2.556442	12.877000
8.138144	-2.512592	12.924000
8.169800	-2.499597	12.971000
8.200803	-2.513097	13.017000
8.232182	-2.538455	13.064000
8.262413	-2.564654	13.110000
8.293295	-2.588858	13.156000
8.323521	-2.607183	13.203000
8.354701	-2.621187	13.249000
8.385912	-2.631999	13.296000
8.416282	-2.640097	13.341000
8.447519	-2.644764	13.387000
8.477883	-2.642698	13.434000
8.582984	-2.635729	13.480000
8.612317	-2.574684	13.636000
8.643822	-2.520281	13.683000
8.748225	-2.540368	13.729000
8.779271	-2.561192	13.886000
8.811059	-2.580196	13.932000
8.841145	-2.594826	13.978000
8.872548	-2.612332	14.024000
8.903493	-2.634169	14.070000
8.933524	-2.655234	14.116000
8.963154	-2.677829	14.163000
8.994879	-2.699988	14.209000
9.026095	-2.719644	14.256000
9.057455	-2.741628	14.302000
9.087688	-2.762651	14.348000
9.119586	-2.780789	14.395000
9.150381	-2.799749	14.441000
9.181248	-2.818877	14.487000
9.211637	-2.837409	14.533000
9.456781	-2.854590	14.580000
9.486977	-2.658891	14.947000
9.517751	-2.618724	14.993000
9.548303	-2.588817	15.040000
9.579905	-2.569227	15.086000
9.610600	-2.559715	15.132000
9.641966	-2.551565	15.177000
9.672169	-2.546773	15.225000
9.704056	-2.543447	15.271000
9.734565	-2.540243	15.318000
9.764540	-2.536614	15.364000
9.795176	-2.537664	15.410000
9.826159	-2.542053	15.456000
9.857587	-2.547097	15.503000
9.888466	-2.556327	15.549000
9.919618	-2.564937	15.595000
9.950718	-2.570914	15.642000
10.054866	-2.576924	15.688000
10.085027	-2.573159	15.844000
10.115604	-2.561036	15.890000
10.360855	-2.291041	15.937000
10.391761	-2.288136	16.305000
10.422996	-2.281717	16.351000
10.454501	-2.269476	16.398000
10.485177	-2.250484	16.444000
10.516585	-2.225130	16.490000
10.547294	-2.197626	16.537000
10.578541	-2.168182	16.583000
10.608493	-2.138313	16.629000
10.639177	-2.109535	16.675000
10.669707	-2.085592	16.721000
10.782762	-2.068107	16.768000
10.813431	-2.008767	16.935000
10.843891	-1.985479	16.982000
10.948320	-1.885090	17.028000
10.979051	-1.854294	17.186000
11.010619	-1.821873	17.232000
11.041679	-1.789016	17.278000
11.072966	-1.758837	17.325000
11.103595	-1.729499	17.371000
11.134929	-1.697531	17.418000
11.166888	-1.666415	17.464000
11.197328	-1.632335	17.510000
11.227610	-1.602460	17.557000
11.257891	-1.576955	17.603000
11.289162	-1.554605	17.650000
11.320198	-1.534633	17.696000
11.351461	-1.501771	17.742000
11.382848	-1.461737	17.789000
11.413561	-1.433265	17.835000
11.516967	-1.423680	17.881000
11.547135	-1.374050	18.036000
11.577270	-1.357570	18.083000
11.683031	-1.361620	18.129000
11.713663	-1.359050	18.285000
11.744543	-1.339672	18.332000
11.775311	-1.295608	18.377000
11.805983	-1.251194	18.424000
11.837112	-1.228739	18.470000
11.867373	-1.219531	18.516000
11.897930	-1.220318	18.563000
11.928528	-1.220434	18.609000
11.960055	-1.220935	18.655000
11.991382	-1.219986	18.701000
12.022138	-1.218001	18.748000
12.053175	-1.214123	18.794000
12.084603	-1.205173	18.841000
12.115214	-1.190565	18.887000
12.145310	-1.175430	18.933000
12.248885	-1.155947	18.979000
12.279738	-1.084639	19.135000
12.311113	-1.060159	19.182000
12.416821	-0.988120	19.228000
12.447651	-0.967522	19.385000
12.478469	-0.949291	19.432000
12.509033	-0.933820	19.478000
12.539463	-0.920850	19.525000
12.570873	-0.910036	19.571000
12.601449	-0.904788	19.618000
12.632578	-0.897076	19.664000
12.663843	-0.888442	19.711000
12.695174	-0.878185	19.757000
12.726021	-0.861166	19.803000
12.756877	-0.835625	19.849000
12.787891	-0.801794	19.896000
12.818352	-0.772677	19.942000
12.848943	-0.745587	19.988000
12.878632	-0.721560	20.034000
13.124033	-0.700798	20.081000
13.155353	-0.467257	20.449000
13.186437	-0.463778	20.495000
13.217838	-0.462179	20.541000
13.248434	-0.457470	20.588000
13.280150	-0.448881	20.634000
13.311005	-0.435999	20.680000
13.341680	-0.421923	20.727000
13.372483	-0.405966	20.773000
13.402471	-0.388876	20.820000
13.433604	-0.370544	20.866000
13.463892	-0.350952	20.912000
13.495837	-0.330334	20.958000
13.526998	-0.311309	21.004000
13.558303	-0.290848	21.051000
13.588384	-0.267074	21.098000
13.620729	-0.242146	21.144000
13.722421	-0.219507	21.190000
13.754331	-0.157677	21.346000
13.785199	-0.134996	21.393000
14.030189	-0.035903	21.439000
14.060511	-0.027768	21.806000
14.092669	-0.016458	21.853000
14.123311	0.002598	21.899000
14.154889	0.029922	21.946000
14.184683	0.057355	21.992000
14.216128	0.088801	22.038000
14.246413	0.122508	22.084000
14.277305	0.159310	22.131000
14.307867	0.201655	22.177000
14.339204	0.248930	22.224000
14.449902	0.287395	22.270000
14.479889	0.387937	22.435000
14.511201	0.415812	22.481000
14.616642	0.469705	22.528000
14.647069	0.460496	22.685000
14.678503	0.447695	22.731000
14.709324	0.436022	22.778000
14.740811	0.429411	22.824000
14.770733	0.424398	22.871000
14.801620	0.423349	22.917000
14.832282	0.426112	22.963000
14.863603	0.430386	23.010000
14.894357	0.435451	23.056000
14.925816	0.441076	23.103000
14.957069	0.445898	23.149000
14.987951	0.450889	23.196000
15.019665	0.455672	23.242000
15.051225	0.461556	23.289000
15.081820	0.464203	23.335000
15.184904	0.465268	23.381000
15.215935	0.440668	23.538000
15.246547	0.427307	23.583000
15.351084	0.396391	23.630000
15.381805	0.382062	23.786000
15.412885	0.369510	23.832000
15.443876	0.355655	23.878000
15.473503	0.335277	23.923000
15.504003	0.307544	23.970000
15.535639	0.276476	24.017000
15.566941	0.243327	24.063000
15.597710	0.208136	24.110000
15.629246	0.167906	24.156000
15.660247	0.128287	24.203000
15.691474	0.095019	24.249000
15.722210	0.070516	24.296000
15.753375	0.059498	24.342000
15.783362	0.062729	24.388000
15.813734	0.076411	24.434000
15.918533	0.094271	24.480000
15.949299	0.103232	24.636000
15.980425	0.095030	24.683000
16.084547	0.089397	24.729000
16.115261	0.082326	24.886000
16.146059	0.067940	24.932000
16.176485	0.051690	24.978000
16.207595	0.034003	25.024000
16.238717	0.013647	25.071000
16.270029	-0.002475	25.117000
16.300813	-0.019265	25.163000
16.331835	-0.030775	25.210000
16.363602	-0.033747	25.256000
16.394088	-0.035465	25.303000
16.424259	-0.039342	25.349000
16.454163	-0.041842	25.396000
16.485713	-0.043312	25.441000
16.516926	-0.046049	25.488000
16.547909	-0.052081	25.534000
16.792677	-0.061541	25.580000
16.823878	0.034672	25.947000
16.855282	0.055398	25.994000
16.885749	0.070384	26.040000
16.914836	0.087534	26.086000
16.946020	0.123423	26.132000
16.977094	0.181027	26.179000
17.008455	0.252577	26.225000
17.038951	0.328058	26.272000
17.070897	0.399979	26.318000
17.101942	0.469666	26.365000
17.133120	0.536843	26.411000
17.162570	0.595811	26.456000
17.194777	0.645252	26.503000
17.224497	0.683026	26.550000
17.255857	0.707747	26.596000
17.285911	0.723260	26.642000
17.390246	0.723024	26.689000
17.421979	0.685161	26.844000
17.453016	0.688091	26.891000
17.697932	0.615144	26.937000
17.729715	0.597126	27.305000
17.759244	0.587896	27.351000
17.790418	0.596464	27.398000
17.820566	0.609772	27.444000
17.852030	0.621436	27.490000
17.882848	0.628613	27.537000
17.914258	0.635562	27.583000
17.945075	0.637905	27.629000
17.976354	0.631293	27.676000
18.008085	0.612501	27.722000
18.117217	0.587441	27.769000
18.149211	0.499396	27.935000
18.180183	0.487495	27.982000
18.285603	0.450055	28.027000
18.316718	0.421904	28.185000
18.345830	0.394095	28.232000
18.377298	0.375585	28.278000
18.407693	0.362976	28.324000
18.438998	0.356896	28.371000
18.469394	0.354133	28.417000
18.500877	0.351539	28.462000
18.531572	0.354029	28.509000
18.562705	0.359093	28.555000
18.594302	0.368872	28.602000
18.625030	0.382794	28.649000
18.655836	0.387074	28.695000
18.686449	0.381753	28.742000
18.717102	0.373957	28.788000
18.748192	0.364958	28.834000
18.852786	0.353333	28.881000
18.883620	0.327174	29.036000
18.914802	0.324463	29.083000
19.019195	0.327205	29.129000
19.049005	0.313524	29.286000
19.079934	0.288530	29.332000
19.111052	0.259807	29.378000
19.142689	0.230053	29.425000
19.173323	0.217606	29.471000
19.205077	0.231534	29.518000
19.235448	0.244028	29.563000
19.266131	0.245472	29.609000
19.294967	0.243850	29.655000
19.326656	0.247889	29.702000
19.357674	0.268905	29.748000
19.388681	0.307188	29.795000
19.419414	0.353061	29.841000
19.451153	0.396371	29.887000
19.482417	0.434721	29.934000
19.586288	0.456804	29.980000
19.616447	0.454424	30.135000
19.645957	0.440438	30.180000
19.751847	0.435074	30.228000
19.783247	0.432715	30.386000
19.813783	0.423359	30.432000
19.845235	0.411827	30.478000
19.876411	0.394837	30.524000
19.907523	0.376176	30.571000
19.938226	0.365115	30.617000
19.969154	0.365320	30.663000
19.998286	0.372853	30.710000
20.029318	0.386012	30.756000
20.060447	0.391128	30.802000
20.092034	0.387691	30.849000
20.122639	0.378095	30.895000
20.153938	0.374668	30.941000
20.185490	0.381544	30.987000
20.215768	0.391804	31.034000
20.461351	0.402380	31.080000
20.491639	0.598752	31.448000
20.522111	0.593109	31.494000
20.553083	0.585486	31.540000
20.583835	0.580630	31.587000
20.615279	0.571961	31.633000
20.646057	0.561194	31.680000
20.676850	0.548116	31.726000
20.706779	0.535431	31.772000
20.738600	0.532060	31.817000
20.769246	0.520449	31.864000
20.799995	0.512889	31.910000
20.830312	0.513694	31.957000
20.861242	0.523785	32.003000
20.892218	0.536623	32.049000
20.923280	0.549601	32.095000
20.954027	0.559193	32.142000
21.058956	0.568653	32.187000
21.089587	0.720775	32.344000
21.120416	0.772319	32.391000
21.364979	0.886858	32.437000
21.395115	0.886306	32.804000
21.426525	0.891797	32.851000
21.457449	0.901341	32.897000
21.488992	0.909689	32.943000
21.519801	0.908938	32.990000
21.550632	0.907162	33.036000
21.582154	0.902264	33.082000
21.613160	0.898439	33.129000
21.643032	0.903832	33.175000
21.672642	0.911193	33.221000
21.786061	0.922445	33.267000
21.817436	0.957812	33.436000
21.848410	0.961949	33.482000
21.953274	0.947313	33.528000
21.983593	0.940345	33.686000
22.013964	0.931445	33.731000
22.044938	0.925959	33.778000
22.076077	0.918450	33.825000
22.107012	0.912880	33.870000
22.137556	0.909862	33.916000
22.168922	0.909820	33.963000
22.200134	0.912912	34.009000
22.230274	0.918806	34.056000
22.259796	0.928360	34.102000
22.291350	0.938996	34.147000
22.322176	0.950366	34.194000
22.353179	0.961388	34.240000
22.384068	0.967282	34.286000
22.415764	0.969537	34.333000
22.519960	0.970109	34.379000
22.550986	0.957905	34.536000
22.581616	0.943443	34.582000
22.686080	0.842205	34.629000
22.717286	0.814916	34.786000
22.748014	0.791592	34.832000
22.779668	0.774934	34.879000
22.810300	0.757192	34.925000
22.841509	0.740377	34.971000
22.871680	0.715091	35.017000
22.902767	0.694216	35.064000
22.932567	0.671839	35.110000
22.963858	0.653261	35.156000
22.995191	0.641270	35.203000
23.026246	0.629373	35.249000
23.057544	0.620238	35.296000
23.088082	0.612297	35.342000
23.120049	0.604090	35.388000
23.150535	0.601309	35.434000
23.254012	0.605071	35.480000
23.283987	0.648490	35.637000
23.315814	0.657834	35.683000
23.420002	0.669888	35.730000
23.449796	0.668973	35.885000
23.481638	0.668627	35.931000
23.512693	0.669972	35.977000
23.542853	0.670693	36.024000
23.571944	0.671713	36.070000
23.603965	0.671285	36.116000
23.635225	0.670181	36.163000
23.666389	0.669804	36.209000
23.696852	0.667304	36.255000
23.728858	0.666534	36.302000
23.759891	0.666147	36.348000
23.790830	0.665493	36.395000
23.821710	0.658959	36.441000
23.852315	0.651314	36.487000
23.883130	0.644179	36.534000
24.128157	0.634897	36.580000
24.158476	0.537427	36.948000
24.190226	0.528974	36.995000
24.221223	0.524129	37.041000
24.252362	0.519671	37.088000
24.282983	0.517102	37.134000
24.314857	0.513191	37.181000
24.346260	0.508754	37.227000
24.376556	0.504346	37.273000
24.406243	0.496955	37.319000
24.436940	0.488188	37.366000
24.468058	0.479094	37.412000
24.499187	0.472865	37.458000
24.529752	0.469686	37.505000
24.561809	0.466463	37.551000
24.592776	0.464548	37.598000
24.623523	0.462011	37.644000
24.727720	0.466929	37.691000
24.757042	0.493926	37.847000
24.788350	0.483055	37.893000
25.033067	0.468729	37.939000
25.064183	0.462813	38.306000
25.095253	0.442062	38.352000
25.126747	0.408491	38.399000
25.157717	0.367281	38.445000
25.188952	0.322920	38.491000
25.218530	0.279819	38.537000
25.248964	0.242992	38.583000
25.279187	0.207729	38.629000
25.310914	0.175724	38.675000
25.341861	0.154485	38.722000
25.454160	0.138608	38.768000
25.484352	0.140863	38.936000
25.514942	0.146647	38.982000
25.619754	0.146012	39.029000
25.651174	0.137789	39.186000
25.681963	0.127680	39.232000
25.713231	0.116935	39.278000
25.744226	0.100103	39.325000
25.775561	0.079414	39.371000
25.805738	0.061627	39.417000
25.835296	0.044329	39.462000
25.866389	0.032985	39.509000
25.897561	0.021995	39.556000
25.928679	0.013359	39.602000
25.959908	0.004948	39.649000
25.990781	-0.001041	39.695000
26.022202	-0.006490	39.741000
26.052886	-0.009638	39.788000
26.084298	-0.013685	39.834000
26.186290	-0.016696	39.880000
26.217633	-0.013737	40.036000
26.248847	-0.010490	40.082000
26.354452	-0.003973	40.128000
26.384940	-0.002725	40.285000
26.416298	-0.002495	40.332000
26.447316	0.000343	40.378000
26.477960	0.007287	40.425000
26.508106	0.013762	40.471000
26.538344	0.020190	40.517000
26.569545	0.031518	40.563000
26.600903	0.043662	40.610000
26.631896	0.055194	40.656000
26.662074	0.068717	40.702000
26.694055	0.082771	40.748000
26.725092	0.099635	40.794000
26.756114	0.114316	40.841000
26.785238	0.128651	40.888000
26.816529	0.141167	40.933000
26.920705	0.153060	40.980000
26.951941	0.203481	41.136000
26.982868	0.217095	41.182000
27.088280	0.245356	41.228000
27.118754	0.242797	41.386000
27.149148	0.234432	41.432000
27.179630	0.221012	41.478000
27.210162	0.206436	41.524000
27.241870	0.194135	41.571000
27.272489	0.184374	41.617000
27.303916	0.177013	41.663000
27.334786	0.170151	41.710000
27.365330	0.165110	41.756000
27.396893	0.162065	41.802000
27.427360	0.161795	41.848000
27.457185	0.166763	41.895000
27.487840	0.174748	41.941000
27.519406	0.190197	41.987000
27.550503	0.209053	42.034000
27.795325	0.231931	42.080000
27.827265	0.295677	42.448000
27.858152	0.291524	42.495000
27.889382	0.290096	42.541000
27.920100	0.288280	42.587000
27.950279	0.289740	42.634000
27.981005	0.293438	42.680000
28.011723	0.297823	42.726000
28.042828	0.307303	42.773000
28.073844	0.316527	42.819000
28.105264	0.323930	42.866000
28.136211	0.324505	42.912000
28.167398	0.326295	42.958000
28.197661	0.328298	43.005000
28.229296	0.331715	43.050000
28.259455	0.335932	43.097000
28.290691	0.338715	43.144000
28.393537	0.338621	43.190000
28.425253	0.339071	43.346000
28.456475	0.341321	43.392000
28.701237	0.393659	43.438000
28.732195	0.403366	43.806000
28.763913	0.413064	43.852000
28.793578	0.422670	43.899000
28.824627	0.432225	43.944000
28.854929	0.437821	43.991000
28.885893	0.442912	44.037000
28.916293	0.445334	44.084000
28.948108	0.446373	44.130000
28.979341	0.447778	44.176000
29.010333	0.452707	44.222000
29.120684	0.461895	44.269000
29.151015	0.488616	44.436000
29.182359	0.483227	44.482000
29.288030	0.467460	44.527000
29.318977	0.464828	44.684000
29.349438	0.464611	44.730000
29.378591	0.465984	44.776000
29.409475	0.468530	44.822000
29.440051	0.470526	44.869000
29.471816	0.472729	44.915000
29.502080	0.473841	44.962000
29.533979	0.474623	45.008000
29.565124	0.476734	45.055000
29.596185	0.477940	45.101000
29.626559	0.478372	45.147000
29.657923	0.479996	45.194000
29.688307	0.481370	45.240000
29.718617	0.480216	45.286000
29.749097	0.477825	45.333000
29.854136	0.477218	45.379000
29.885480	0.477990	45.535000
29.916700	0.481734	45.581000
30.022015	0.473228	45.628000
30.050356	0.466389	45.786000
30.080417	0.457821	45.832000
30.110052	0.446227	45.879000
30.141954	0.437080	45.925000
30.173014	0.431571	45.971000
30.203896	0.425532	46.018000
30.235475	0.421820	46.064000
30.266090	0.422174	46.111000
30.297538	0.419586	46.157000
30.328024	0.418411	46.203000
30.358800	0.417496	46.249000
30.389711	0.414542	46.296000
30.419939	0.416494	46.342000
30.450629	0.417236	46.389000
30.481826	0.422346	46.435000
30.586265	0.426425	46.481000
30.617531	0.454627	46.637000
30.647986	0.460370	46.683000
30.751957	0.481223	46.729000
30.782414	0.490840	46.886000
30.812881	0.503635	46.932000
30.844677	0.514197	46.978000
30.875928	0.521104	47.025000
30.907228	0.523490	47.071000
30.937388	0.519084	47.117000
30.968738	0.514469	47.164000
30.999775	0.506330	47.209000
31.030004	0.498624	47.256000
31.059578	0.493532	47.303000
31.091913	0.489956	47.349000
31.122278	0.488470	47.396000
31.153585	0.487484	47.442000
31.184889	0.479693	47.488000
31.216284	0.464953	47.535000
31.461855	0.444806	47.581000
31.492584	0.355259	47.949000
31.522999	0.363268	47.996000
31.554546	0.363749	48.042000
31.584517	0.360260	48.088000
31.614928	0.346861	48.134000
31.645858	0.330705	48.181000
31.677085	0.312388	48.227000
31.708492	0.288907	48.273000
31.739740	0.264333	48.320000
31.769660	0.241015	48.365000
31.801840	0.221003	48.412000
31.831995	0.204459	48.458000
31.862533	0.196978	48.505000
31.892505	0.198417	48.551000
31.923811	0.214326	48.597000
31.954646	0.239246	48.643000
32.058481	0.270413	48.688000
32.089695	0.359072	48.845000
32.119700	0.379645	48.891000
32.365348	0.497056	48.938000
32.395982	0.509435	49.305000
32.426136	0.524243	49.351000
32.457146	0.538485	49.398000
32.488280	0.551344	49.444000
32.519897	0.561137	49.490000
32.550758	0.564349	49.537000
32.581503	0.564807	49.582000
32.612475	0.566447	49.629000
32.643455	0.568755	49.675000
32.674423	0.570505	49.722000
32.786133	0.572195	49.768000
32.816963	0.582799	49.935000
32.847616	0.581823	49.981000
32.952222	0.573260	50.028000
32.983686	0.574019	50.186000
33.013648	0.576243	50.231000
33.044727	0.577864	50.278000
33.075042	0.579851	50.325000
33.106863	0.580796	50.371000
33.138012	0.585620	50.417000
33.169307	0.591420	50.464000
33.200540	0.598353	50.510000
33.231201	0.607381	50.556000
33.261669	0.617882	50.602000
33.291451	0.630381	50.648000
33.322438	0.642195	50.695000
33.353660	0.655594	50.742000
33.384639	0.668297	50.788000
33.414497	0.680575	50.834000
33.520103	0.691422	50.878000
33.549227	0.729311	51.035000
33.580425	0.743960	51.081000
33.685723	0.783671	51.127000
33.716215	0.807581	51.286000
33.747537	0.834750	51.332000
33.777906	0.858413	51.378000
33.809396	0.873935	51.423000
33.840153	0.883012	51.470000
33.871117	0.891286	51.516000
33.900929	0.902493	51.562000
33.932178	0.908429	51.609000
33.962800	0.911622	51.655000
33.993465	0.909447	51.701000
34.024602	0.899635	51.747000
34.056319	0.882928	51.794000
34.087537	0.867957	51.841000
34.118310	0.851936	51.887000
34.149981	0.836872	51.933000
34.252055	0.824522	51.979000
34.283400	0.791320	52.136000
34.314076	0.790039	52.182000
34.419609	0.817997	52.228000
34.450965	0.815685	52.385000
34.481687	0.807298	52.432000
34.513016	0.807445	52.478000
34.543773	0.816041	52.524000
34.574369	0.828398	52.571000
34.604134	0.839538	52.617000
34.635233	0.856750	52.663000
34.666286	0.875294	52.709000
34.696981	0.888446	52.755000
34.727957	0.904250	52.802000
34.758822	0.913929	52.847000
34.790166	0.917963	52.894000
34.821012	0.918147	52.940000
34.850489	0.914114	52.986000
34.880996	0.912389	53.032000
35.128469	0.905676	53.078000
35.159280	0.926436	53.448000
35.189721	0.930164	53.495000
35.220751	0.933432	53.541000
35.251746	0.938795	53.587000
35.282695	0.944287	53.633000
35.313218	0.956373	53.679000
35.344889	0.967134	53.725000
35.375772	0.975597	53.772000
35.406645	0.981732	53.818000
35.436894	0.987114	53.865000
35.467175	0.985651	53.911000
35.498627	0.985724	53.958000
35.529384	0.984806	54.004000
35.560425	0.984039	54.050000
35.591927	0.983830	54.096000
35.623426	0.983417	54.143000
35.726415	0.982467	54.189000
35.756672	0.988288	54.344000
35.787567	0.991770	54.391000
36.032162	1.124846	54.437000
36.063123	1.141661	54.805000
36.094687	1.148817	54.851000
36.125297	1.149974	54.897000
36.156266	1.145621	54.944000
36.188025	1.139014	54.990000
36.218655	1.133232	55.037000
36.249043	1.128847	55.083000
36.278920	1.125557	55.129000
36.310031	1.122439	55.175000
36.340953	1.119242	55.222000
36.453923	1.115240	55.268000
36.485256	1.094322	55.436000
36.515052	1.089540	55.482000
36.619712	1.076561	55.529000
36.650154	1.080176	55.686000
36.682021	1.083823	55.732000
36.712986	1.086998	55.778000
36.743631	1.087678	55.823000
36.775110	1.086397	55.871000
36.805990	1.080663	55.917000
36.836828	1.074924	55.963000
36.866405	1.068665	56.010000
36.897481	1.058464	56.056000
36.928184	1.047723	56.102000
36.959709	1.036091	56.148000
36.990462	1.025289	56.195000
37.021630	1.014299	56.241000
37.052825	1.003085	56.287000
37.084016	0.992273	56.334000
37.186944	0.980369	56.380000
37.217443	0.949127	56.536000
37.248753	0.938911	56.582000
37.353486	0.914281	56.629000
37.385572	0.918544	56.786000
37.416406	0.926474	56.833000
37.447947	0.935481	56.879000
37.478523	0.944930	56.926000
37.509799	0.949106	56.972000
37.541070	0.950856	57.019000
37.570847	0.946955	57.065000
37.601777	0.940355	57.112000
37.632711	0.936373	57.158000
37.663917	0.932588	57.205000
37.694628	0.928130	57.251000
37.726157	0.927175	57.297000
37.757087	0.927391	57.343000
37.788186	0.929451	57.390000
37.817886	0.933678	57.436000
37.921743	0.940470	57.482000
37.952934	0.961533	57.638000
37.984594	0.963008	57.684000
38.088067	0.954107	57.731000
38.118943	0.953288	57.886000
38.150334	0.955813	57.933000
38.179915	0.962403	57.979000
38.211579	0.973111	58.025000
38.241755	0.990422	58.071000
38.272820	1.010742	58.118000
38.303181	1.029437	58.164000
38.334967	1.047109	58.211000
38.366089	1.064589	58.257000
38.397361	1.077685	58.303000
38.428490	1.090084	58.350000
38.458702	1.102333	58.396000
38.489620	1.110762	58.442000
38.519578	1.119347	58.489000
38.550734	1.127420	58.535000
38.796558	1.134242	58.581000
38.827361	1.186148	58.949000
38.858802	1.203220	58.995000
38.889198	1.220778	59.042000
38.920500	1.228799	59.088000
38.951757	1.213308	59.134000
38.982633	1.187462	59.181000
39.012371	1.166758	59.228000
39.043570	1.150132	59.274000
39.074746	1.129048	59.320000
39.105683	1.106848	59.367000
39.135987	1.086439	59.412000
39.167266	1.072051	59.459000
39.198983	1.064873	59.505000
39.230094	1.058287	59.552000
39.261419	1.049868	59.598000
39.292018	1.043649	59.645000
39.394861	1.036312	59.691000
39.425588	1.023728	59.846000
39.456295	1.025447	59.893000
39.701512	1.101804	59.940000
39.732822	1.114440	60.307000
39.763952	1.128754	60.354000
39.795200	1.138977	60.400000
39.825615	1.143644	60.445000
39.857010	1.147652	60.492000
39.886822	1.154924	60.539000
39.917694	1.158477	60.585000
39.948186	1.157844	60.631000
39.979415	1.160538	60.677000
40.010299	1.166498	60.724000
40.120963	1.179106	60.770000
40.152116	1.252823	60.936000
40.182773	1.271636	60.982000
40.287825	1.330494	61.028000
40.318966	1.338638	61.186000
40.350280	1.343698	61.232000
40.381068	1.342303	61.278000
40.411667	1.333575	61.325000
40.442216	1.324031	61.371000
40.472969	1.312439	61.417000
40.503542	1.297310	61.463000
40.534756	1.284420	61.510000
40.565340	1.274646	61.556000
40.596516	1.267537	61.602000
40.627787	1.261039	61.649000
40.658141	1.255883	61.694000
40.689866	1.253216	61.741000
40.721149	1.252079	61.788000
40.751095	1.251912	61.834000
40.854369	1.253247	61.881000
40.885494	1.260552	62.036000
40.915944	1.256977	62.082000
41.021468	1.227097	62.128000
41.053186	1.217450	62.286000
41.083904	1.211962	62.332000
41.114404	1.207452	62.379000
41.143455	1.205689	62.424000
41.175203	1.203501	62.471000
41.206686	1.201848	62.518000
41.237569	1.202889	62.563000
41.267585	1.201524	62.609000
41.300005	1.198191	62.656000
41.331008	1.196491	62.702000
41.362137	1.192378	62.749000
41.392072	1.190003	62.795000
41.422856	1.185520	62.842000
41.453359	1.180512	62.888000
41.484493	1.173282	62.934000
41.588822	1.165571	62.980000
41.619856	1.136733	63.136000
41.651285	1.128596	63.183000
41.755027	1.087522	63.229000
41.786345	1.077257	63.386000
41.816587	1.069425	63.433000
41.847924	1.064454	63.478000
41.878297	1.058569	63.525000
41.909749	1.056632	63.571000
41.940725	1.055466	63.617000
41.971343	1.056705	63.664000
42.002657	1.061216	63.710000
42.033510	1.063842	63.756000
42.063395	1.069404	63.802000
42.093068	1.076341	63.848000
42.125289	1.087956	63.895000
42.156319	1.098232	63.941000
42.187425	1.109898	63.988000
42.217951	1.119316	64.033000
42.463707	1.130130	64.080000
42.495290	1.286854	64.448000
42.526112	1.296377	64.495000
42.556734	1.302596	64.542000
42.587806	1.304893	64.588000
42.617933	1.307221	64.634000
42.648371	1.303561	64.680000
42.679785	1.301024	64.726000
42.710784	1.299194	64.772000
42.741802	1.292272	64.819000
42.773093	1.280772	64.865000
42.803285	1.271152	64.912000
42.835175	1.262631	64.958000
42.865248	1.253467	65.004000
42.895636	1.247822	65.050000
42.925167	1.240770	65.096000
42.957473	1.235071	65.142000
43.062133	1.228558	65.189000
43.093063	1.208755	65.345000
43.124373	1.207819	65.391000
43.368979	1.322970	65.438000
43.397919	1.322125	65.804000
43.429671	1.315422	65.850000
43.460059	1.319289	65.897000
43.490977	1.331993	65.943000
43.521373	1.352443	65.990000
43.553463	1.370458	66.036000
43.584654	1.384537	66.083000
43.615522	1.390835	66.129000
43.646333	1.389309	66.176000
43.677985	1.383919	66.222000
43.788653	1.370573	66.268000
43.819718	1.377332	66.436000
43.850951	1.364626	66.483000
43.956276	1.330588	66.529000
43.986533	1.340152	66.686000
44.017809	1.353294	66.732000
44.048120	1.368150	66.779000
44.079269	1.381957	66.825000
44.109050	1.395513	66.872000
44.140752	1.407574	66.918000
44.171877	1.418292	66.964000
44.203349	1.429300	67.010000
44.234094	1.434633	67.057000
44.265301	1.432472	67.104000
44.296361	1.427254	67.150000
44.327391	1.417218	67.196000
44.357360	1.406399	67.243000
44.387855	1.395318	67.289000
44.419346	1.385230	67.335000
44.523288	1.376282	67.382000
44.554579	1.354186	67.537000
44.585213	1.343729	67.583000
44.688724	1.309684	67.630000
44.718855	1.301315	67.786000
44.750142	1.297728	67.832000
44.781460	1.291489	67.879000
44.812451	1.285459	67.925000
44.843826	1.281705	67.972000
44.874883	1.280116	68.018000
44.906343	1.280927	68.065000
44.936896	1.283766	68.111000
44.967541	1.288752	68.157000
44.997883	1.300245	68.203000
45.028394	1.310786	68.249000
45.059555	1.328793	68.296000
45.091503	1.353586	68.342000
45.122859	1.375832	68.389000
45.154061	1.389629	68.435000
45.258199	1.398009	68.482000
45.288618	1.445082	68.637000
45.319766	1.456870	68.684000
45.422683	1.474052	68.730000
45.453797	1.473817	68.886000
45.485564	1.475185	68.932000
45.516498	1.476271	68.979000
45.547035	1.484867	69.025000
45.578296	1.490151	69.071000
45.609602	1.487754	69.118000
45.640593	1.479714	69.164000
45.670424	1.475405	69.211000
45.701857	1.476925	69.257000
45.732937	1.487754	69.304000
45.764216	1.506019	69.351000
45.795111	1.529364	69.397000
45.826310	1.539179	69.443000
45.856871	1.537719	69.490000
45.887808	1.525613	69.536000
46.133575	1.509912	69.582000
46.164801	1.489994	69.951000
46.195569	1.495639	69.997000
46.226088	1.501070	70.043000
46.256380	1.499767	70.090000
46.287632	1.499862	70.136000
46.318554	1.498621	70.183000
46.350256	1.496403	70.229000
46.380302	1.494195	70.275000
46.412235	1.490580	70.321000
46.443280	1.488377	70.368000
46.474540	1.484815	70.414000
46.504413	1.482449	70.460000
46.535320	1.488398	70.507000
46.565627	1.498506	70.554000
46.597448	1.514333	70.600000
46.627956	1.530583	70.647000
46.731832	1.543156	70.692000
46.763691	1.592873	70.848000
46.794398	1.598289	70.895000
47.038874	1.584141	70.941000
47.068586	1.575241	71.307000
47.098287	1.565118	71.353000
47.129543	1.559013	71.398000
47.160815	1.555857	71.445000
47.191883	1.555115	71.491000
47.222982	1.556312	71.538000
47.254238	1.556731	71.584000
47.285421	1.553739	71.631000
47.315932	1.549197	71.677000
47.346147	1.543877	71.724000
47.457419	1.535301	71.769000
47.489144	1.512046	71.936000
47.520001	1.511538	71.983000
47.623912	1.514384	72.029000
47.654761	1.514692	72.186000
47.684415	1.513578	72.233000
47.716017	1.513060	72.278000
47.746843	1.510778	72.323000
47.778107	1.508807	72.371000
47.808722	1.507216	72.417000
47.840470	1.503005	72.463000
47.870977	1.500986	72.509000
47.900874	1.496350	72.556000
47.931892	1.494837	72.602000
47.962280	1.487450	72.649000
47.994089	1.481994	72.695000
48.024766	1.477090	72.741000
48.056371	1.473305	72.788000
48.087290	1.469812	72.834000
48.191643	1.461725	72.881000
48.221835	1.440982	73.036000
48.252472	1.435859	73.083000
48.357098	1.415433	73.129000
48.387413	1.411857	73.286000
48.419238	1.410306	73.333000
48.450836	1.413248	73.379000
48.481835	1.419881	73.425000
48.512154	1.429944	73.472000
48.544029	1.437940	73.519000
48.574890	1.445954	73.565000
48.605220	1.452378	73.611000
48.634851	1.455571	73.657000
48.666288	1.452803	73.703000
48.697614	1.449928	73.750000
48.728509	1.448917	73.796000
48.759880	1.447690	73.843000
48.790418	1.449447	73.888000
48.821794	1.448833	73.935000
48.923876	1.454647	73.980000
48.955052	1.534915	74.136000
48.985666	1.569628	74.182000
49.091590	1.641221	74.229000
49.122943	1.644573	74.386000
49.154003	1.644301	74.433000
49.185329	1.639603	74.479000
49.215098	1.630124	74.526000
49.246270	1.618812	74.572000
49.276550	1.609070	74.619000
49.307772	1.598800	74.665000
49.337949	1.589963	74.711000
49.369297	1.586610	74.757000
49.400788	1.590943	74.804000
49.431956	1.596173	74.850000
49.462413	1.602452	74.896000
49.493835	1.608997	74.943000
49.524868	1.620916	74.989000
49.555018	1.636894	75.035000
49.799809	1.650827	75.082000
49.831008	1.616737	75.450000
49.862199	1.616648	75.496000
49.893175	1.614021	75.543000
49.924412	1.611625	75.589000
49.956029	1.609333	75.636000
49.987001	1.604739	75.682000
50.017720	1.600550	75.727000
50.048427	1.597562	75.774000
50.079402	1.595217	75.821000
50.109552	1.594255	75.867000
50.140374	1.606268	75.914000
50.171104	1.629492	75.960000
50.202453	1.656797	76.006000
50.233486	1.680425	76.053000
50.264362	1.692414	76.099000
50.295208	1.695917	76.145000
50.399211	1.690544	76.192000
50.429872	1.645596	76.347000
50.460702	1.653544	76.394000
50.705039	1.670158	76.440000
50.736100	1.665172	76.807000
50.766826	1.662126	76.853000
50.797978	1.662032	76.900000
50.829738	1.664115	76.946000
50.860303	1.663817	76.993000
50.891348	1.664016	77.039000
50.922550	1.665025	77.086000
50.952681	1.658763	77.132000
50.983680	1.654211	77.178000
51.014053	1.646781	77.225000
51.124337	1.640979	77.271000
51.156177	1.627884	77.436000
51.186450	1.628114	77.483000
51.291256	1.632022	77.529000
51.322382	1.634842	77.685000
51.353454	1.638279	77.733000
51.384918	1.641116	77.779000
51.416082	1.642769	77.826000
51.447134	1.648607	77.872000
51.477549	1.653468	77.919000
51.509474	1.661771	77.965000
51.540250	1.671680	78.012000
51.570596	1.681866	78.058000
51.600719	1.693701	78.105000
51.632164	1.703488	78.151000
51.662790	1.710738	78.196000
51.693988	1.712579	78.243000
51.725360	1.712920	78.289000
51.756382	1.711209	78.335000
51.859075	1.708007	78.382000
51.890082	1.691394	78.537000
51.920770	1.688008	78.584000
52.025457	1.670723	78.630000
52.056820	1.665982	78.786000
52.087301	1.664016	78.832000
52.118380	1.662253	78.879000
52.147850	1.660637	78.924000
52.178546	1.658439	78.971000
52.209291	1.656106	79.017000
52.240801	1.656796	79.063000
52.271366	1.657136	79.109000
52.302395	1.658993	79.155000
52.334255	1.662128	79.202000
52.365081	1.664157	79.248000
52.396034	1.667605	79.295000
52.425807	1.671325	79.341000
52.457390	1.673596	79.388000
52.487778	1.674558	79.434000
52.592131	1.678027	79.480000
52.623026	1.693409	79.636000
52.654228	1.702864	79.683000
52.759376	1.726334	79.729000
52.789476	1.726742	79.886000
52.820429	1.726470	79.932000
52.850387	1.723932	79.978000
52.881597	1.718111	80.024000
52.912150	1.711646	80.071000
52.944240	1.703238	80.117000
52.975036	1.692056	80.164000
53.006403	1.681474	80.210000
53.037529	1.672377	80.257000
53.068363	1.667794	80.303000
53.098278	1.667815	80.349000
53.128121	1.670043	80.395000
53.159419	1.673172	80.442000
53.190434	1.677006	80.488000
53.221702	1.678555	80.534000
53.467253	1.675327	80.581000
53.497622	1.630814	80.949000
53.529316	1.639938	80.995000
53.560181	1.647220	81.041000
53.591502	1.650700	81.088000
53.620715	1.650543	81.134000
53.652402	1.651281	81.180000
53.682786	1.650554	81.227000
53.714084	1.655241	81.273000
53.744499	1.661959	81.318000
53.775656	1.673454	81.364000
53.807308	1.690206	81.411000
53.837896	1.710758	81.458000
53.869513	1.732561	81.504000
53.900304	1.750234	81.551000
53.930366	1.761099	81.596000
53.960151	1.775582	81.642000
54.064550	1.792982	81.689000
54.095802	1.862430	81.845000
54.127135	1.885204	81.892000
54.372003	1.988500	81.938000
54.403632	1.986257	82.305000
54.434059	1.986236	82.352000
54.464524	1.990049	82.398000
54.495242	1.995768	82.444000
54.525492	2.005656	82.491000
54.557040	2.011960	82.537000
54.588546	2.008627	82.584000
54.619388	2.001240	82.630000
54.650578	1.999342	82.677000
54.681589	2.001862	82.723000
54.791973	2.003594	82.770000
54.823387	1.977581	82.936000
54.854755	1.974820	82.983000
54.959023	1.980622	83.028000
54.990456	1.985163	83.186000
55.021340	1.991289	83.232000
55.051862	1.995114	83.279000
55.082135	1.998468	83.324000
55.112600	2.002628	83.370000
55.143457	2.008764	83.417000
55.174617	2.015000	83.463000
55.205628	2.024151	83.509000
55.236988	2.029273	83.556000
55.267518	2.032056	83.602000
55.298847	2.035222	83.647000
55.329750	2.032547	83.694000
55.360053	2.029618	83.741000
55.390584	2.023513	83.787000
55.421256	2.016721	83.834000
55.525206	2.007493	83.880000
55.557165	1.974187	84.036000
55.588129	1.968259	84.082000
55.693308	1.942293	84.128000
55.723796	1.939483	84.286000
55.753658	1.937244	84.333000
55.785444	1.939254	84.379000
55.816428	1.942617	84.425000
55.846912	1.947169	84.472000
55.877542	1.948713	84.518000
55.909167	1.950225	84.564000
55.939843	1.950669	84.610000
55.971422	1.950847	84.657000
56.001803	1.951653	84.702000
56.032383	1.952201	84.749000
56.062367	1.950962	84.796000
56.093612	1.948744	84.842000
56.124642	1.943391	84.888000
56.155810	1.937772	84.935000
56.260274	1.928982	84.981000
56.291542	1.901841	85.137000
56.322329	1.893771	85.183000
56.425914	1.869780	85.229000
56.457466	1.872533	85.387000
56.488211	1.881496	85.433000
56.519372	1.891390	85.479000
56.550421	1.897818	85.526000
56.581523	1.898836	85.572000
56.612311	1.894872	85.618000
56.643805	1.886597	85.665000
56.674432	1.873728	85.711000
56.703291	1.862264	85.757000
56.734870	1.851920	85.802000
56.765350	1.841024	85.849000
56.796629	1.831658	85.895000
56.826729	1.822695	85.942000
56.858896	1.812342	85.988000
56.889806	1.800543	86.034000
57.135032	1.788993	86.081000
57.166399	1.749633	86.449000
57.197660	1.750308	86.495000
57.228393	1.753324	86.542000
57.258578	1.755048	86.588000
57.289131	1.755909	86.635000
57.320203	1.759022	86.680000
57.350172	1.759281	86.726000
57.381909	1.761505	86.772000
57.412708	1.762253	86.819000
57.444006	1.761536	86.865000
57.474402	1.760425	86.911000
57.505013	1.759747	86.957000
57.534368	1.758719	87.003000
57.566327	1.753884	87.049000
57.597242	1.750004	87.096000
57.628628	1.741004	87.142000
57.732612	1.734216	87.189000
57.763200	1.722145	87.344000
57.794261	1.718194	87.390000
58.038760	1.716600	87.437000
58.068817	1.717288	87.804000
58.099720	1.717670	87.851000
58.130377	1.715781	87.897000
58.162022	1.716872	87.943000
58.192798	1.715572	87.989000
58.223808	1.716114	88.034000
58.254434	1.717435	88.081000
58.285887	1.722175	88.128000
58.316728	1.725377	88.174000
58.346501	1.729121	88.220000
58.460428	1.731866	88.266000
58.490877	1.723889	88.437000
58.522403	1.714659	88.483000
58.627558	1.681928	88.530000
58.657432	1.670910	88.686000
58.688012	1.661597	88.732000
58.717843	1.655853	88.778000
58.749898	1.651531	88.825000
58.780801	1.648501	88.871000
58.811842	1.644102	88.917000
58.842353	1.639697	88.964000
58.874113	1.635271	89.010000
58.905096	1.634219	89.056000
58.934466	1.635788	89.102000
58.964643	1.642344	89.148000
58.995377	1.647439	89.194000
59.027102	1.649219	89.241000
59.058212	1.651364	89.287000
59.088946	1.652886	89.333000
59.193261	1.654791	89.380000
59.224901	1.657103	89.536000
59.255308	1.656093	89.582000
59.359550	1.660357	89.628000
59.390783	1.664250	89.786000
59.421920	1.667347	89.833000
59.452942	1.669398	89.878000
59.483672	1.672543	89.925000
59.514882	1.674672	89.972000
59.544986	1.679784	90.018000
59.576465	1.673432	90.063000
59.607015	1.665118	90.110000
59.636946	1.659489	90.156000
59.667568	1.657428	90.202000
59.699009	1.655533	90.249000
59.730699	1.654634	90.295000
59.761606	1.654220	90.342000
59.792290	1.655450	90.388000
59.823461	1.657439	90.434000
59.927180	1.661272	90.480000
59.957634	1.710978	90.637000
59.988406	1.727256	90.683000
60.090823	1.747022	90.730000
60.121330	1.743622	90.885000
60.152336	1.737091	90.933000
60.183570	1.732987	90.979000
60.214691	1.727736	91.025000
60.245736	1.722765	91.072000
60.275729	1.720843	91.118000
60.306271	1.718286	91.164000
60.336912	1.718483	91.210000
60.368011	1.720102	91.257000
60.399279	1.721769	91.303000
60.430351	1.722556	91.348000
60.460919	1.721115	91.395000
60.491569	1.718402	91.441000
60.523017	1.715168	91.487000
60.553555	1.710987	91.534000
60.799310	1.704863	91.580000
60.829633	1.667803	91.949000
60.860025	1.663042	91.996000
60.890770	1.655927	92.041000
60.922914	1.652489	92.087000
60.953932	1.653054	92.133000
60.983767	1.652604	92.180000
61.015899	1.651856	92.226000
61.047048	1.653541	92.273000
61.077578	1.656095	92.319000
61.107248	1.657962	92.366000
61.139069	1.661724	92.412000
61.169468	1.664846	92.458000
61.200502	1.668431	92.505000
61.231762	1.671858	92.550000
61.263134	1.677017	92.597000
61.293510	1.680370	92.644000
61.397560	1.684441	92.690000
61.427752	1.705731	92.845000
61.457836	1.710325	92.892000
61.702946	1.778335	92.938000
61.734575	1.784569	93.305000
61.765228	1.792546	93.351000
61.796212	1.799178	93.397000
61.827203	1.805384	93.444000
61.858855	1.809232	93.491000
61.889666	1.813837	93.537000
61.919931	1.818577	93.583000
61.950684	1.823553	93.630000
61.981414	1.829981	93.676000
62.011898	1.834805	93.723000
62.125087	1.842259	93.769000
62.155805	1.854805	93.936000
62.186916	1.852914	93.983000
62.289620	1.853114	94.030000
62.321783	1.869279	94.187000
62.352982	1.893937	94.233000
62.384165	1.920668	94.279000
62.415214	1.945410	94.326000
62.446632	1.968037	94.373000
62.477231	1.984487	94.419000
62.507896	1.993936	94.465000
62.538822	1.999612	94.511000
62.569482	2.002280	94.558000
62.600439	2.003426	94.604000
62.630351	2.001208	94.650000
62.662560	1.999633	94.697000
62.693259	1.999654	94.743000
62.725099	1.998686	94.790000
62.754892	1.997508	94.836000
62.860332	1.999241	94.882000
62.889452	2.003594	95.039000
62.920240	2.005268	95.084000
63.024627	2.001177	95.131000
63.055434	1.997813	95.286000
63.086867	1.994386	95.332000
63.117063	1.997792	95.379000
63.148869	2.002794	95.425000
63.178857	2.009553	95.471000
63.209384	2.022115	95.518000
63.239749	2.042007	95.564000
63.271562	2.065518	95.611000
63.302576	2.089863	95.657000
63.333472	2.109854	95.703000
63.364455	2.123543	95.749000
63.395481	2.135944	95.796000
63.426491	2.152289	95.841000
63.455834	2.166137	95.888000
63.486699	2.167738	95.933000
63.590548	2.166772	95.980000
63.622358	2.200380	96.136000
63.653391	2.224218	96.183000
63.758467	2.307773	96.229000
63.789692	2.315353	96.386000
63.820407	2.319468	96.433000
63.852043	2.316517	96.480000
63.882720	2.312566	96.526000
63.913088	2.306920	96.573000
63.943580	2.300055	96.619000
63.975259	2.296275	96.666000
64.006573	2.292272	96.712000
64.037491	2.293154	96.758000
64.068171	2.292657	96.805000
64.099777	2.295765	96.850000
64.131072	2.306889	96.898000
64.161521	2.318168	96.944000
64.191933	2.331766	96.991000
64.221875	2.343602	97.037000
64.467761	2.354196	97.083000
64.499048	2.435851	97.451000
64.529889	2.444573	97.498000
64.560831	2.454958	97.544000
64.592264	2.457971	97.590000
64.623297	2.462000	97.637000
64.653970	2.463988	97.682000
64.684826	2.469513	97.728000
64.714853	2.476084	97.775000
64.745134	2.482274	97.821000
64.775814	2.486857	97.867000
64.807370	2.488746	97.913000
64.838764	2.491336	97.960000
64.869245	2.490608	98.006000
64.899925	2.489514	98.052000
64.931358	2.486951	98.098000
64.962560	2.482138	98.145000
65.064904	2.476461	98.191000
65.096199	2.445415	98.347000
65.126925	2.439938	98.393000
65.371896	2.425484	98.439000
65.403245	2.418856	98.807000
65.434317	2.413661	98.853000
65.465120	2.410667	98.899000
65.495316	2.404614	98.945000
65.526810	2.403108	98.991000
65.557083	2.407022	99.038000
65.587748	2.416339	99.084000
65.618113	2.431340	99.130000
65.649331	2.452163	99.176000
65.680756	2.476491	99.222000
65.791682	2.497659	99.268000
65.822485	2.536359	99.437000
65.853457	2.540963	99.482000
65.958390	2.547884	99.529000
65.989769	2.552075	99.687000
66.021141	2.556797	99.732000
66.052097	2.562276	99.779000
66.082293	2.567061	99.825000
66.113734	2.570009	99.872000
66.144245	2.572932	99.918000
66.174218	2.581104	99.964000
66.204875	2.587072	100.010000
66.236938	2.590585	100.057000
66.267549	2.595483	100.103000
66.298875	2.597173	100.149000
66.329132	2.598944	100.196000
66.360749	2.600223	100.241000
66.391245	2.599172	100.288000
66.421787	2.598578	100.334000
66.525429	2.595711	100.381000
66.556209	2.597581	100.537000
66.587749	2.597769	100.582000
66.692598	2.617033	100.629000
66.724039	2.623842	100.787000
66.754527	2.631162	100.833000
66.784392	2.639437	100.878000
66.815134	2.648761	100.925000
66.846198	2.657824	100.971000
66.877139	2.666340	101.018000
66.908196	2.681259	101.064000
66.939813	2.703622	101.110000
66.970508	2.723362	101.157000
67.001557	2.745277	101.203000
67.031538	2.763572	101.249000
67.062856	2.778756	101.295000
67.092906	2.792433	101.342000
67.123939	2.801735	101.388000
67.154481	2.810163	101.435000
67.259652	2.818779	101.481000
67.290494	2.871455	101.637000
67.321519	2.893046	101.682000
67.426045	2.965735	101.729000
67.456356	2.980687	101.887000
67.487628	2.989864	101.933000
67.517747	2.994215	101.979000
67.549541	2.996566	102.026000
67.580851	2.997626	102.072000
67.611555	2.994142	102.119000
67.642527	2.990830	102.164000
67.673729	2.987122	102.211000
67.704893	2.984935	102.257000
67.734905	2.982445	102.304000
67.766115	2.981832	102.350000
67.796803	2.983124	102.397000
67.827744	2.985936	102.443000
67.858455	2.990157	102.490000
67.889903	2.996723	102.536000
68.135858	3.005700	102.582000
68.166753	3.093871	102.951000
68.198233	3.099307	102.997000
68.229143	3.101667	103.044000
68.260161	3.106491	103.090000
68.290734	3.108882	103.137000
68.321598	3.115564	103.183000
68.351771	3.118206	103.230000
68.382659	3.126272	103.276000
68.414176	3.136687	103.322000
68.444902	3.145495	103.368000
68.476558	3.149540	103.414000
68.506700	3.152146	103.460000
68.537949	3.154147	103.507000
68.568145	3.153582	103.553000
68.599278	3.154558	103.599000
68.629136	3.162791	103.646000
68.733623	3.176840	103.692000
68.764995	3.244498	103.848000
68.795752	3.263040	103.894000
69.040800	3.343134	103.940000
69.071695	3.347842	104.307000
69.102629	3.352143	104.354000
69.132595	3.350526	104.399000
69.162629	3.351540	104.446000
69.193701	3.357301	104.492000
69.225249	3.362361	104.538000
69.256291	3.370945	104.585000
69.286540	3.379605	104.631000
69.318319	3.388761	104.677000
69.349783	3.401380	104.724000
69.459633	3.422149	104.770000
69.490674	3.509146	104.936000
69.520386	3.519127	104.982000
69.626733	3.547227	105.028000
69.657859	3.557517	105.185000
69.687962	3.566469	105.232000
69.719034	3.573706	105.279000
69.749100	3.581115	105.325000
69.780356	3.585714	105.372000
69.811505	3.591370	105.418000
69.843007	3.596182	105.464000
69.873264	3.599467	105.511000
69.904728	3.604520	105.557000
69.935823	3.608012	105.603000
69.966910	3.610654	105.650000
69.997298	3.613917	105.696000
70.027740	3.618534	105.743000
70.058958	3.620062	105.789000
70.089907	3.621483	105.836000
70.194172	3.624985	105.882000
70.225228	3.621399	106.038000
70.256223	3.626369	106.084000
70.359366	3.659938	106.130000
70.390607	3.675534	106.287000
70.421295	3.689598	106.333000
70.452059	3.706653	106.379000
70.483016	3.721104	106.426000
70.514602	3.735748	106.472000
70.545728	3.747169	106.518000
70.576861	3.758418	106.565000
70.607641	3.769692	106.611000
70.637999	3.781056	106.657000
70.668602	3.792839	106.703000
70.698790	3.805977	106.750000
70.730062	3.821384	106.796000
70.761472	3.834259	106.843000
70.792352	3.850541	106.889000
70.823339	3.871988	106.935000
70.928479	3.890867	106.982000
70.957546	3.962061	107.138000
70.989286	3.979451	107.184000
71.093128	4.017719	107.230000
71.124177	4.028844	107.387000
71.155157	4.040993	107.433000
71.185998	4.056059	107.479000
71.217301	4.071214	107.526000
71.249095	4.088155	107.572000
71.279998	4.106875	107.619000
71.309479	4.127897	107.665000
71.340981	4.147861	107.711000
71.371515	4.167800	107.757000
71.402303	4.188084	107.804000
71.432921	4.208002	107.850000
71.464862	4.228317	107.896000
71.495787	4.249380	107.943000
71.527197	4.269163	107.989000
71.557593	4.289682	108.035000
71.803203	4.309930	108.082000
71.834359	4.463000	108.450000
71.865070	4.481102	108.496000
71.894981	4.501574	108.543000
71.926061	4.523903	108.590000
71.957156	4.545354	108.635000
71.988381	4.567804	108.682000
72.018370	4.590904	108.728000
72.049672	4.613049	108.773000
72.080337	4.633605	108.820000
72.111878	4.653157	108.866000
72.140783	4.672274	108.912000
72.172500	4.694197	108.959000
72.203441	4.714682	109.005000
72.234652	4.737738	109.051000
72.265024	4.759779	109.098000
72.296611	4.781101	109.144000
72.400837	4.806883	109.190000
72.431379	4.880854	109.346000
72.461905	4.903587	109.392000
72.706777	5.091704	109.438000
72.736389	5.108226	109.804000
72.768421	5.131545	109.851000
72.799432	5.159110	109.899000
72.830619	5.186612	109.945000
72.860684	5.215619	109.991000
72.893231	5.246757	110.038000
72.923735	5.279679	110.083000
72.954553	5.313302	110.130000
72.984373	5.345963	110.176000
73.015076	5.376684	110.222000
73.128430	5.408650	110.268000
73.159525	5.520235	110.437000
73.190366	5.549256	110.483000
73.294193	5.648450	110.529000
73.323274	5.674543	110.687000
73.355814	5.702663	110.733000
73.386655	5.732165	110.780000
73.417858	5.764300	110.826000
73.447869	5.794168	110.872000
73.479264	5.823547	110.918000
73.510420	5.852637	110.964000
73.540724	5.881794	111.010000
73.570321	5.912945	111.055000
73.600762	5.944708	111.101000
73.631512	5.982743	111.147000
73.662745	6.022444	111.192000
73.692557	6.068956	111.238000
73.724097	6.115793	111.284000
73.755054	6.161596	111.330000
73.861777	6.208190	111.377000
73.892050	6.373093	111.537000
73.921985	6.418296	111.584000
74.027356	6.553640	111.630000
74.058727	6.597045	111.787000
74.089738	6.643825	111.833000
74.120802	6.699556	111.880000
74.150867	6.756783	111.925000
74.182922	6.817121	111.972000
74.213710	6.874553	112.018000
74.243775	6.931619	112.065000
74.273710	6.988463	112.110000
74.305151	7.041359	112.157000
74.336100	7.095404	112.203000
74.367010	7.156779	112.250000
74.397683	7.214680	112.296000
74.429346	7.270227	112.342000
74.460464	7.326397	112.388000
74.490445	7.382369	112.434000
74.594318	7.438547	112.480000
74.624990	7.639393	112.637000
74.655916	7.705340	112.683000
74.760934	7.922702	112.730000
74.792198	7.988269	112.887000
74.823715	8.046369	112.933000
74.854871	8.098017	112.980000
74.885283	8.143377	113.026000
74.915947	8.187707	113.073000
74.945951	8.231578	113.119000
74.977884	8.285732	113.166000
75.008072	8.337951	113.212000
75.039974	8.393764	113.258000
75.070646	8.454987	113.305000
75.102225	8.519674	113.351000
75.133858	8.588380	113.397000
75.165360	8.652909	113.444000
75.195809	8.719391	113.490000
75.226228	8.786340	113.537000
75.470747	8.857190	113.584000
75.502541	9.417737	113.952000
75.533328	9.487469	113.998000
75.564492	9.553468	114.044000
75.594558	9.615553	114.090000
75.626867	9.675787	114.137000
75.657163	9.738137	114.183000
75.688788	9.802978	114.229000
75.718423	9.873019	114.274000
75.749003	9.946110	114.321000
75.779345	10.026611	114.367000
75.810547	10.107034	114.413000
75.841619	10.184147	114.460000
75.872783	10.255958	114.506000
75.903348	10.315931	114.552000
75.934558	10.369668	114.599000
75.965876	10.414340	114.645000
76.068297	10.466082	114.691000
76.099384	10.730751	114.847000
76.129926	10.795892	114.893000
76.375097	11.281983	114.939000
76.407053	11.343447	115.306000
76.437671	11.409316	115.353000
76.469265	11.476479	115.400000
76.500284	11.547193	115.446000
76.530987	11.617840	115.493000
76.562197	11.685899	115.539000
76.592938	11.746664	115.585000
76.622888	11.802178	115.632000
76.653138	11.856280	115.678000
76.685124	11.910236	115.724000
76.796512	11.975896	115.771000
76.826807	12.241320	115.937000
76.857403	12.321822	115.983000
76.962290	12.575923	116.029000
76.993239	12.656258	116.186000
77.023665	12.737683	116.232000
77.055198	12.820593	116.278000
77.086477	12.908055	116.325000
77.116858	12.999031	116.371000
77.148199	13.087700	116.418000
77.178602	13.177536	116.465000
77.208982	13.259608	116.511000
77.240147	13.345480	116.557000
77.271449	13.430272	116.604000
77.302344	13.513231	116.650000
77.333777	13.598670	116.697000
77.364434	13.682920	116.743000
77.395721	13.769138	116.789000
77.426678	13.852357	116.836000
77.529383	13.935515	116.882000
77.561038	14.266934	117.038000
77.591972	14.381715	117.085000
77.696313	14.809584	117.131000
77.726571	14.939757	117.286000
77.757988	15.059740	117.332000
77.788815	15.175304	117.379000
77.819118	15.293278	117.425000
77.849084	15.415426	117.471000
77.880793	15.540526	117.518000
77.911827	15.668604	117.565000
77.942998	15.797887	117.611000
77.974232	15.922557	117.657000
78.005142	16.042620	117.703000
78.036352	16.154921	117.749000
78.066057	16.267442	117.796000
78.097889	16.378521	117.842000
78.127724	16.486782	117.889000
78.158573	16.596707	117.934000
78.263060	16.704960	117.981000
78.294294	17.070024	118.136000
78.324643	17.174631	118.183000
78.429499	17.535589	118.229000
78.460387	17.647079	118.386000
78.490260	17.763518	118.432000
78.521263	17.886273	118.479000
78.551728	18.016360	118.525000
78.583507	18.154018	118.572000
78.614317	18.298498	118.618000
78.645935	18.442772	118.664000
78.676085	18.589085	118.709000
78.707625	18.732988	118.756000
78.738374	18.877233	118.803000
78.768786	19.021011	118.849000
78.798720	19.164830	118.896000
78.829877	19.310908	118.942000
78.861302	19.460178	118.988000
78.892213	19.612102	119.034000
79.138145	19.764115	119.081000
79.169578	21.114642	119.449000
79.200726	21.284442	119.496000
79.231867	21.446057	119.542000
79.262693	21.602688	119.588000
79.293143	21.749752	119.635000
79.323785	21.893728	119.681000
79.353958	22.041129	119.727000
79.384353	22.185123	119.773000
79.415479	22.330443	119.820000
79.447181	22.481017	119.866000
79.478068	22.633610	119.912000
79.508672	22.790834	119.958000
79.539767	22.950970	120.004000
79.571169	23.120272	120.051000
79.601065	23.296111	120.097000
79.631338	23.471881	120.144000
79.735602	23.653345	120.190000
79.767120	24.283768	120.346000
79.798015	24.480567	120.392000
80.043471	25.884432	120.438000
80.074612	26.027975	120.806000
80.104616	26.167056	120.852000
80.135219	26.291147	120.899000
80.165630	26.417775	120.944000
80.196341	26.548631	120.989000
80.226921	26.680810	121.036000
80.258185	26.813134	121.083000
80.289503	26.956582	121.129000
80.320475	27.100464	121.175000
80.351547	27.238903	121.222000
80.462626	27.378415	121.268000
80.494482	27.912156	121.436000
80.525761	28.061499	121.483000
80.630641	28.549457	121.530000
80.661282	28.691873	121.686000
80.691862	28.843631	121.733000
80.723933	28.996225	121.779000
80.753568	29.153653	121.826000
80.784310	29.317633	121.872000
80.814314	29.492032	121.919000
80.846200	29.672547	121.965000
80.876826	29.863302	122.011000
80.908421	30.055380	122.056000
80.938494	30.251811	122.103000
80.970257	30.450230	122.150000
81.001022	30.651035	122.196000
81.031848	30.847693	122.242000
81.061383	31.037962	122.288000
81.092816	31.220482	122.334000
81.197365	31.398279	122.381000
81.228237	31.961956	122.537000
81.259685	32.139853	122.584000
81.364034	32.745330	122.630000
81.394245	32.917020	122.787000
81.425433	33.093930	122.833000
81.456213	33.276512	122.880000
81.487046	33.453219	122.926000
81.517911	33.619869	122.972000
81.549674	33.779439	123.019000
81.580323	33.936003	123.065000
81.611726	34.095273	123.111000
81.641676	34.258816	123.157000
81.673324	34.428456	123.203000
81.703628	34.615654	123.250000
81.734115	34.814709	123.297000
81.764442	35.019990	123.343000
81.796613	35.228857	123.389000
81.826878	35.442637	123.436000
81.931673	35.654605	123.482000
81.962829	36.371723	123.638000
81.992602	36.587882	123.684000
82.096944	37.324984	123.730000
82.126848	37.554888	123.886000
82.158719	37.805653	123.933000
82.189937	38.063980	123.979000
82.221492	38.312058	124.026000
82.252534	38.552251	124.072000
82.283360	38.797098	124.119000
82.314524	39.044710	124.165000
82.344727	39.283820	124.212000
82.375231	39.525483	124.257000
82.405104	39.774960	124.303000
82.436360	40.039553	124.349000
82.466610	40.308864	124.395000
82.498696	40.562559	124.442000
82.528923	40.805212	124.487000
82.560225	41.043534	124.533000
82.806772	41.278018	124.580000
82.836907	43.375732	124.949000
82.868078	43.657897	124.996000
82.898489	43.937212	125.042000
82.928916	44.214735	125.088000
82.959696	44.488935	125.135000
82.991052	44.758842	125.181000
83.022270	45.027641	125.227000
83.053280	45.291344	125.273000
83.084091	45.555038	125.320000
83.115140	45.813509	125.366000
83.146143	46.071729	125.412000
83.175570	46.325444	125.459000
83.206719	46.572098	125.504000
83.237222	46.824971	125.551000
83.268240	47.058689	125.597000
83.298774	47.286265	125.643000
83.403638	47.513261	125.689000
83.434387	48.304032	125.845000
83.465321	48.540987	125.891000
83.709763	50.383817	125.938000
