Sample	2mm tape 2
date	08/01/2025
	
Temperature (K)	77.00
Angle (deg.)	180.000000
field / T	0.040000
	
		
Approx. trace time (s)	60.0	
		
Current / A	V1  -sample/ uV	time/s
0.003004	-0.908011	0.000000
0.002879	-0.904260	0.046000
0.003028	-0.895842	0.092000
0.002843	-0.844806	0.247000
0.002747	-0.827357	0.293000
0.002539	-0.793571	0.339000
0.002395	-0.783305	0.494000
0.002437	-0.761784	0.540000
0.002807	-0.741844	0.587000
0.002938	-0.727165	0.633000
0.002903	-0.732997	0.679000
0.003070	-0.765143	0.725000
0.024969	-0.797367	0.771000
0.054876	-0.818241	0.817000
0.085311	-0.828471	0.864000
0.117207	-0.830010	0.910000
0.147831	-0.822483	0.956000
0.178824	-0.802594	1.003000
0.209616	-0.782723	1.049000
0.241313	-0.761713	1.095000
0.272341	-0.747925	1.142000
0.375809	-0.733911	1.187000
0.406290	-0.685882	1.344000
0.437253	-0.648056	1.390000
0.540465	-0.663206	1.437000
0.571577	-0.690298	1.591000
0.602760	-0.707141	1.637000
0.633675	-0.703200	1.684000
0.664060	-0.690392	1.730000
0.694838	-0.664620	1.776000
0.725343	-0.635723	1.823000
0.756899	-0.607377	1.869000
0.788104	-0.575391	1.916000
0.819456	-0.546707	1.962000
0.850304	-0.522171	2.009000
0.881688	-0.497888	2.055000
0.912690	-0.480813	2.102000
0.943838	-0.463285	2.148000
0.972914	-0.446722	2.194000
1.003649	-0.437126	2.240000
1.152003	-0.425242	2.286000
1.269701	-0.459500	2.509000
1.301660	-0.478919	2.686000
1.332122	-0.493700	2.732000
1.363484	-0.510160	2.778000
1.394360	-0.526016	2.825000
1.425636	-0.537412	2.871000
1.456408	-0.549728	2.917000
1.486913	-0.557508	2.963000
1.516505	-0.568568	3.009000
1.547562	-0.579423	3.055000
1.578711	-0.588570	3.102000
1.609481	-0.598865	3.147000
1.640490	-0.608595	3.194000
1.671670	-0.611928	3.240000
1.702705	-0.615752	3.287000
1.733760	-0.606582	3.333000
1.979474	-0.593665	3.379000
2.010636	-0.572162	3.748000
2.041311	-0.573675	3.794000
2.071308	-0.567814	3.840000
2.102197	-0.559335	3.886000
2.133248	-0.550593	3.933000
2.163729	-0.540656	3.978000
2.194359	-0.534373	4.024000
2.225687	-0.529644	4.069000
2.256969	-0.539552	4.117000
2.287685	-0.559989	4.163000
2.317369	-0.581695	4.209000
2.348584	-0.607262	4.255000
2.379138	-0.632942	4.302000
2.410241	-0.645557	4.348000
2.440614	-0.651152	4.394000
2.472576	-0.655120	4.441000
2.576444	-0.652850	4.486000
2.608057	-0.626358	4.643000
2.638653	-0.642317	4.689000
2.883415	-0.688500	4.736000
2.912891	-0.695175	5.103000
2.945082	-0.707598	5.150000
2.975447	-0.718712	5.196000
3.007017	-0.726820	5.243000
3.037369	-0.738463	5.289000
3.069333	-0.757489	5.335000
3.100512	-0.781589	5.382000
3.131265	-0.803272	5.428000
3.160916	-0.803437	5.474000
3.191899	-0.788201	5.521000
3.304089	-0.767294	5.567000
3.335492	-0.691786	5.734000
3.365965	-0.665038	5.781000
3.472470	-0.616427	5.827000
3.501696	-0.615657	5.985000
3.533041	-0.619928	6.032000
3.563215	-0.626252	6.078000
3.594836	-0.632730	6.125000
3.625295	-0.639503	6.171000
3.656997	-0.642941	6.218000
3.688199	-0.648681	6.264000
3.719248	-0.656817	6.310000
3.749893	-0.658380	6.356000
3.780710	-0.662744	6.402000
3.811076	-0.663598	6.449000
3.841584	-0.663360	6.495000
3.872243	-0.663381	6.541000
3.903796	-0.663504	6.588000
3.935207	-0.667098	6.633000
4.038468	-0.669110	6.680000
4.070053	-0.699332	6.835000
4.099754	-0.710446	6.882000
4.205001	-0.745927	6.928000
4.235402	-0.731112	7.085000
4.266260	-0.469987	7.132000
4.297352	-0.598706	7.176000
4.327722	-0.707014	7.222000
4.358407	-0.652316	7.268000
4.388573	-0.640262	7.314000
4.419165	-0.619686	7.360000
4.449977	-0.605946	7.407000
4.480852	-0.591777	7.453000
4.511923	-0.569192	7.499000
4.543360	-0.545703	7.545000
4.574073	-0.522670	7.592000
4.605392	-0.503365	7.638000
4.636195	-0.488552	7.685000
4.666618	-0.477582	7.731000
4.770615	-0.470008	7.777000
4.801412	-0.432351	7.934000
4.832835	-0.417743	7.981000
4.938325	-0.422361	8.027000
4.969470	-0.424024	8.185000
5.000642	-0.418432	8.230000
5.031362	-0.417785	8.277000
5.061179	-0.409416	8.323000
5.092010	-0.394624	8.369000
5.122669	-0.381762	8.416000
5.153249	-0.372915	8.462000
5.184281	-0.375627	8.508000
5.215845	-0.384861	8.555000
5.246899	-0.398002	8.601000
5.278329	-0.415010	8.647000
5.309307	-0.426436	8.694000
5.340413	-0.438695	8.740000
5.370879	-0.444806	8.787000
5.401050	-0.444537	8.833000
5.646049	-0.440982	8.879000
5.677072	-0.441275	9.248000
5.708235	-0.433864	9.294000
5.738978	-0.432250	9.339000
5.769457	-0.427614	9.385000
5.800453	-0.423912	9.431000
5.831515	-0.424351	9.477000
5.861019	-0.421260	9.522000
5.890311	-0.424132	9.568000
5.921075	-0.425432	9.613000
5.952187	-0.426168	9.659000
5.983248	-0.430835	9.705000
6.013063	-0.436981	9.750000
6.044179	-0.445434	9.796000
6.073745	-0.452764	9.842000
6.103948	-0.462234	9.887000
6.134001	-0.470968	9.933000
6.238567	-0.476617	9.979000
6.270121	-0.508390	10.135000
6.301219	-0.519194	10.182000
6.547970	-0.566499	10.228000
6.579199	-0.560497	10.598000
6.609251	-0.552195	10.644000
6.640279	-0.544651	10.690000
6.669667	-0.538131	10.737000
6.701385	-0.518296	10.783000
6.731978	-0.495438	10.829000
6.763441	-0.479665	10.875000
6.794589	-0.467215	10.922000
6.825183	-0.456130	10.967000
6.855775	-0.458792	11.013000
6.971943	-0.459914	11.059000
7.001959	-0.457815	11.233000
7.032066	-0.453914	11.279000
7.138566	-0.453343	11.324000
7.169941	-0.450580	11.485000
7.199494	-0.443882	11.531000
7.231855	-0.435888	11.577000
7.262874	-0.431959	11.624000
7.294251	-0.420885	11.670000
7.324713	-0.415813	11.717000
7.355468	-0.407849	11.763000
7.386230	-0.385340	11.809000
7.416699	-0.366908	11.856000
7.447786	-0.351307	11.902000
7.478391	-0.342708	11.948000
7.509177	-0.332479	11.994000
7.539805	-0.330412	12.040000
7.571620	-0.329817	12.086000
7.602316	-0.342159	12.133000
7.706065	-0.347657	12.179000
7.736443	-0.386152	12.335000
7.767372	-0.394386	12.381000
7.872924	-0.419823	12.428000
7.903535	-0.419638	12.586000
7.935353	-0.416247	12.632000
7.965895	-0.415009	12.678000
7.996707	-0.415748	12.724000
8.026230	-0.420844	12.770000
8.057487	-0.419523	12.817000
8.088201	-0.419638	12.863000
8.119533	-0.422557	12.909000
8.150398	-0.415571	12.956000
8.181804	-0.418338	13.002000
8.213230	-0.426311	13.048000
8.243896	-0.433048	13.095000
8.275062	-0.437810	13.141000
8.305697	-0.437747	13.187000
8.336034	-0.439120	13.233000
8.439407	-0.442425	13.280000
8.470434	-0.432944	13.435000
8.501210	-0.418129	13.482000
8.607353	-0.386369	13.528000
8.638364	-0.378175	13.686000
8.669315	-0.377624	13.732000
8.699841	-0.382292	13.779000
8.729608	-0.393115	13.825000
8.760804	-0.406288	13.871000
8.791944	-0.410976	13.918000
8.822631	-0.410851	13.963000
8.853147	-0.407567	14.009000
8.884160	-0.391982	14.055000
8.915759	-0.386669	14.102000
8.946377	-0.382073	14.148000
8.976246	-0.383299	14.194000
9.006750	-0.384422	14.240000
9.038019	-0.392802	14.287000
9.069203	-0.392533	14.333000
9.314795	-0.396451	14.379000
9.345829	-0.295750	14.748000
9.376778	-0.303712	14.794000
9.407904	-0.315898	14.840000
9.438065	-0.331243	14.887000
9.468940	-0.342056	14.933000
9.499931	-0.344603	14.979000
9.529910	-0.340006	15.024000
9.560715	-0.344572	15.071000
9.591911	-0.357014	15.117000
9.623062	-0.386942	15.163000
9.653812	-0.412238	15.210000
9.684731	-0.443502	15.256000
9.716286	-0.476815	15.303000
9.747642	-0.506786	15.349000
9.778277	-0.537403	15.396000
9.807897	-0.567324	15.442000
9.911899	-0.589594	15.489000
9.943213	-0.641129	15.644000
9.974666	-0.646538	15.691000
10.219565	-0.661546	15.737000
10.250156	-0.655304	16.104000
10.280244	-0.646054	16.150000
10.311509	-0.636741	16.196000
10.342341	-0.621270	16.242000
10.373103	-0.608374	16.289000
10.403323	-0.595808	16.335000
10.434941	-0.577495	16.382000
10.466017	-0.552288	16.428000
10.497176	-0.523639	16.474000
10.528026	-0.476248	16.521000
10.638341	-0.438434	16.566000
10.670014	-0.370938	16.733000
10.701417	-0.354486	16.780000
10.807326	-0.391483	16.827000
10.838149	-0.388437	16.986000
10.868878	-0.384610	17.032000
10.900429	-0.373839	17.079000
10.931277	-0.365054	17.125000
10.961626	-0.357126	17.171000
10.991490	-0.346532	17.217000
11.023251	-0.339755	17.264000
11.053616	-0.333422	17.310000
11.085019	-0.331156	17.356000
11.115432	-0.325876	17.402000
11.147068	-0.325887	17.448000
11.177945	-0.327322	17.494000
11.209299	-0.325157	17.541000
11.239064	-0.321946	17.587000
11.270742	-0.317289	17.634000
11.374213	-0.314699	17.681000
11.405383	-0.308544	17.837000
11.436558	-0.304450	17.883000
11.541181	-0.280404	17.929000
11.572602	-0.269331	18.086000
11.602526	-0.257698	18.132000
11.633998	-0.244625	18.179000
11.664307	-0.231655	18.225000
11.695480	-0.222279	18.271000
11.726060	-0.214214	18.317000
11.756796	-0.198837	18.364000
11.788164	-0.178336	18.410000
11.818258	-0.169220	18.456000
11.850074	-0.166273	18.502000
11.881047	-0.167303	18.548000
11.911786	-0.171814	18.595000
11.940744	-0.180660	18.641000
11.972577	-0.189284	18.687000
12.003106	-0.197370	18.733000
12.107996	-0.208755	18.780000
12.138755	-0.244551	18.935000
12.169573	-0.256471	18.981000
12.274443	-0.296913	19.028000
12.303895	-0.307882	19.186000
12.335871	-0.315981	19.232000
12.366730	-0.324037	19.278000
12.398069	-0.324486	19.325000
12.428533	-0.324360	19.371000
12.460069	-0.317134	19.417000
12.491522	-0.312279	19.464000
12.522736	-0.302568	19.510000
12.553277	-0.294386	19.557000
12.583926	-0.284074	19.603000
12.614743	-0.275183	19.650000
12.645191	-0.271795	19.696000
12.675966	-0.265973	19.742000
12.706926	-0.261222	19.788000
12.738634	-0.260162	19.835000
12.983566	-0.255620	19.881000
13.014038	-0.191317	20.249000
13.046321	-0.185825	20.296000
13.076614	-0.183534	20.342000
13.107653	-0.184690	20.388000
13.136846	-0.189068	20.434000
13.167891	-0.193526	20.480000
13.198894	-0.200067	20.527000
13.230238	-0.207360	20.573000
13.260778	-0.210382	20.619000
13.291952	-0.204870	20.665000
13.323757	-0.200787	20.711000
13.353772	-0.204037	20.758000
13.384510	-0.209871	20.804000
13.414821	-0.225080	20.850000
13.445583	-0.244490	20.897000
13.476553	-0.262502	20.943000
13.581476	-0.271339	20.989000
13.612006	-0.262074	21.146000
13.643311	-0.251138	21.192000
13.888532	-0.248817	21.238000
13.919896	-0.246736	21.606000
13.950162	-0.240933	21.652000
13.980983	-0.233484	21.699000
14.011013	-0.221182	21.745000
14.042399	-0.204221	21.790000
14.073146	-0.186511	21.837000
14.104072	-0.165196	21.884000
14.135278	-0.124488	21.930000
14.166844	-0.088775	21.977000
14.197290	-0.063657	22.023000
14.307145	-0.048865	22.069000
14.338165	-0.045697	22.234000
14.369205	-0.054773	22.280000
14.475307	-0.101328	22.327000
14.506484	-0.113904	22.486000
14.536611	-0.128093	22.532000
14.566701	-0.141047	22.579000
14.597461	-0.154059	22.624000
14.628274	-0.165144	22.670000
14.659319	-0.177220	22.717000
14.690464	-0.190178	22.763000
14.721842	-0.199732	22.809000
14.752865	-0.209638	22.856000
14.783809	-0.217171	22.902000
14.815064	-0.229371	22.949000
14.845350	-0.238820	22.995000
14.875579	-0.245507	23.041000
14.906371	-0.243090	23.088000
14.937777	-0.249190	23.134000
15.042964	-0.249848	23.180000
15.074262	-0.257862	23.337000
15.105368	-0.261823	23.383000
15.209024	-0.226255	23.429000
15.239397	-0.216360	23.586000
15.269838	-0.202585	23.632000
15.301469	-0.184740	23.679000
15.332837	-0.169070	23.725000
15.364011	-0.155944	23.771000
15.394947	-0.149413	23.818000
15.426727	-0.148818	23.864000
15.457796	-0.154518	23.911000
15.488229	-0.165229	23.957000
15.517878	-0.179156	24.003000
15.548297	-0.194605	24.049000
15.579581	-0.212661	24.095000
15.610825	-0.231340	24.142000
15.641709	-0.250045	24.188000
15.672746	-0.269297	24.235000
15.777154	-0.290714	24.281000
15.807968	-0.332383	24.437000
15.838638	-0.339090	24.483000
15.942491	-0.353855	24.530000
15.973768	-0.345851	24.686000
16.004598	-0.339268	24.732000
16.036000	-0.337916	24.779000
16.066917	-0.327489	24.825000
16.098189	-0.313726	24.872000
16.128925	-0.299316	24.918000
16.159420	-0.294554	24.964000
16.190043	-0.294502	25.011000
16.219424	-0.296455	25.057000
16.251771	-0.301707	25.103000
16.282709	-0.310949	25.149000
16.314226	-0.321667	25.196000
16.344394	-0.330402	25.242000
16.376276	-0.342345	25.288000
16.407200	-0.360353	25.335000
16.652108	-0.379996	25.381000
16.682364	-0.534039	25.749000
16.713194	-0.528006	25.795000
16.743597	-0.498838	25.841000
16.774928	-0.468230	25.888000
16.806256	-0.437614	25.934000
16.837184	-0.396141	25.981000
16.868424	-0.360523	26.027000
16.899020	-0.329922	26.073000
16.929214	-0.315179	26.119000
16.961022	-0.312363	26.165000
16.991465	-0.308808	26.212000
17.021865	-0.301707	26.258000
17.052188	-0.283783	26.305000
17.084184	-0.257552	26.351000
17.114727	-0.231310	26.398000
17.146193	-0.220925	26.443000
17.250634	-0.204246	26.490000
17.281372	-0.193108	26.647000
17.313258	-0.196973	26.693000
17.558116	-0.075402	26.740000
17.588149	-0.058638	27.107000
17.618418	-0.032847	27.153000
17.648816	0.003314	27.200000
17.680781	0.027715	27.246000
17.711809	0.042840	27.292000
17.743336	0.052781	27.339000
17.773582	0.053945	27.385000
17.804850	0.054650	27.431000
17.835695	0.052189	27.477000
17.865149	0.047323	27.524000
17.976052	0.040397	27.570000
18.006462	0.021123	27.735000
18.037528	0.017442	27.781000
18.143106	-0.010167	27.827000
18.173654	-0.021408	27.986000
18.205152	-0.035893	28.032000
18.235427	-0.050304	28.078000
18.267194	-0.068597	28.125000
18.298175	-0.089099	28.171000
18.328971	-0.109955	28.218000
18.359712	-0.128083	28.264000
18.391485	-0.142110	28.311000
18.422259	-0.156905	28.357000
18.452284	-0.166758	28.403000
18.482242	-0.176980	28.449000
18.513679	-0.190168	28.496000
18.544795	-0.190803	28.542000
18.576245	-0.191127	28.588000
18.607139	-0.189678	28.635000
18.710790	-0.189521	28.680000
18.741968	-0.163571	28.837000
18.772977	-0.142653	28.883000
18.876663	-0.098705	28.929000
18.908228	-0.098162	29.086000
18.939239	-0.092496	29.133000
18.970073	-0.084993	29.178000
19.001179	-0.081348	29.225000
19.032259	-0.082410	29.271000
19.063148	-0.085453	29.318000
19.093453	-0.086380	29.364000
19.124249	-0.078857	29.411000
19.154983	-0.065419	29.457000
19.185081	-0.057295	29.503000
19.216638	-0.050541	29.549000
19.247722	-0.044001	29.595000
19.278609	-0.035666	29.642000
19.309601	-0.035113	29.688000
19.340926	-0.034280	29.734000
19.444286	-0.034831	29.780000
19.474672	0.011104	29.937000
19.506274	0.039203	29.983000
19.611128	0.152790	30.029000
19.642127	0.187636	30.186000
19.672855	0.218932	30.233000
19.704257	0.248717	30.279000
19.735193	0.281180	30.325000
19.764907	0.312273	30.372000
19.795141	0.343650	30.418000
19.826743	0.363642	30.464000
19.858038	0.381467	30.511000
19.889481	0.416112	30.557000
19.920111	0.474248	30.604000
19.951580	0.507202	30.650000
19.982385	0.503967	30.696000
20.012965	0.488398	30.742000
20.043215	0.475465	30.788000
20.073432	0.468458	30.835000
20.318360	0.462470	30.880000
20.349335	0.316071	31.248000
20.380002	0.299155	31.294000
20.411602	0.274468	31.341000
20.442749	0.252070	31.387000
20.474013	0.227192	31.434000
20.503975	0.197647	31.480000
20.536042	0.165662	31.525000
20.565921	0.135771	31.571000
20.596679	0.108533	31.618000
20.626487	0.077655	31.665000
20.658126	0.047925	31.711000
20.688721	0.020499	31.756000
20.719943	-0.007000	31.803000
20.750247	-0.030497	31.849000
20.781017	-0.050066	31.894000
20.810064	-0.064942	31.939000
20.914160	-0.076463	31.985000
20.945282	-0.086413	32.141000
20.975516	-0.087633	32.187000
21.220359	-0.155622	32.234000
21.252318	-0.159530	32.600000
21.282706	-0.165748	32.647000
21.312852	-0.169195	32.692000
21.343050	-0.175489	32.739000
21.374243	-0.181020	32.785000
21.404902	-0.186084	32.831000
21.436078	-0.197772	32.877000
21.467574	-0.211118	32.924000
21.498681	-0.223182	32.970000
21.529751	-0.232673	33.016000
21.643579	-0.244184	33.063000
21.674011	-0.279746	33.235000
21.704906	-0.285578	33.281000
21.810037	-0.269381	33.328000
21.841870	-0.260928	33.486000
21.872700	-0.252230	33.532000
21.904104	-0.249037	33.579000
21.934988	-0.248674	33.625000
21.965412	-0.248215	33.671000
21.994746	-0.251468	33.716000
22.025259	-0.255336	33.762000
22.056363	-0.257323	33.808000
22.087521	-0.258083	33.854000
22.118889	-0.249870	33.900000
22.149156	-0.230162	33.947000
22.180998	-0.213180	33.993000
22.211302	-0.207158	34.039000
22.241529	-0.207910	34.084000
22.271675	-0.212003	34.131000
22.376717	-0.218953	34.177000
22.407042	-0.246966	34.335000
22.438972	-0.255002	34.381000
22.545177	-0.246185	34.427000
22.575940	-0.239216	34.586000
22.607298	-0.238694	34.633000
22.637367	-0.242153	34.679000
22.668971	-0.241601	34.725000
22.698873	-0.239558	34.772000
22.729822	-0.240341	34.818000
22.760488	-0.245444	34.865000
22.792027	-0.246039	34.911000
22.822907	-0.249827	34.957000
22.853723	-0.264504	35.003000
22.885241	-0.283466	35.049000
22.915898	-0.293324	35.095000
22.947093	-0.280984	35.142000
22.976609	-0.257622	35.188000
23.007723	-0.237277	35.235000
23.111663	-0.226516	35.281000
23.143221	-0.233080	35.437000
23.174268	-0.230881	35.483000
23.278638	-0.205971	35.529000
23.309318	-0.192074	35.686000
23.337966	-0.183866	35.731000
23.369886	-0.180553	35.777000
23.400914	-0.185617	35.824000
23.431921	-0.201617	35.870000
23.462086	-0.227682	35.916000
23.493043	-0.241143	35.962000
23.524212	-0.284073	36.008000
23.554833	-0.321988	36.054000
23.584270	-0.340836	36.100000
23.615824	-0.356836	36.147000
23.646946	-0.362039	36.192000
23.677909	-0.362945	36.239000
23.708485	-0.362320	36.286000
23.739839	-0.355215	36.332000
23.985692	-0.345068	36.378000
24.016799	-0.256562	36.746000
24.047270	-0.275201	36.792000
24.079087	-0.296806	36.839000
24.108779	-0.307661	36.885000
24.138900	-0.307107	36.931000
24.169944	-0.288468	36.977000
24.200831	-0.257893	37.024000
24.232283	-0.234038	37.070000
24.262840	-0.216983	37.116000
24.293590	-0.206357	37.163000
24.324978	-0.206723	37.209000
24.356719	-0.221368	37.255000
24.387024	-0.231736	37.302000
24.416037	-0.227975	37.348000
24.447528	-0.206368	37.395000
24.478757	-0.186958	37.441000
24.583177	-0.166810	37.487000
24.613782	-0.117384	37.643000
24.644570	-0.116509	37.689000
24.888564	-0.263049	37.735000
24.919082	-0.289549	38.100000
24.949388	-0.295704	38.147000
24.980151	-0.277676	38.193000
25.010683	-0.253289	38.239000
25.042227	-0.223788	38.285000
25.073652	-0.199179	38.332000
25.104500	-0.171550	38.377000
25.134751	-0.135135	38.424000
25.165456	-0.098110	38.470000
25.194786	-0.069596	38.515000
25.311142	-0.045616	38.561000
25.341780	-0.017738	38.735000
25.372305	-0.023872	38.781000
25.478548	-0.020286	38.827000
25.509777	-0.025681	38.986000
25.540899	-0.030046	39.032000
25.571500	-0.034559	39.079000
25.600659	-0.039333	39.125000
25.631790	-0.046469	39.171000
25.663181	-0.047606	39.217000
25.694067	-0.050231	39.263000
25.725098	-0.053690	39.309000
25.756593	-0.059649	39.356000
25.787250	-0.061585	39.402000
25.818433	-0.061074	39.448000
25.848623	-0.059356	39.495000
25.879628	-0.054877	39.541000
25.909637	-0.057295	39.587000
25.941007	-0.060909	39.634000
26.045638	-0.063971	39.679000
26.075952	-0.090109	39.836000
26.107185	-0.105079	39.881000
26.212750	-0.146495	39.928000
26.243347	-0.138891	40.086000
26.273076	-0.107714	40.132000
26.304048	-0.094599	40.177000
26.334463	-0.096110	40.223000
26.365222	-0.090475	40.269000
26.396133	-0.080598	40.314000
26.425868	-0.074117	40.360000
26.456329	-0.075732	40.406000
26.486556	-0.073410	40.452000
26.517226	-0.043896	40.498000
26.547843	-0.012913	40.545000
26.579931	0.005820	40.591000
26.610705	0.011498	40.637000
26.642480	0.007454	40.684000
26.672330	0.002390	40.730000
26.778291	0.004749	40.775000
26.809040	0.078404	40.935000
26.838840	0.098709	40.981000
26.945212	0.177763	41.026000
26.975911	0.204138	41.185000
27.007233	0.237611	41.232000
27.037594	0.286701	41.278000
27.069173	0.345712	41.324000
27.100177	0.390584	41.370000
27.131634	0.418556	41.417000
27.161551	0.433681	41.463000
27.192264	0.434203	41.510000
27.222444	0.427276	41.556000
27.253245	0.420675	41.602000
27.284947	0.408045	41.648000
27.315489	0.404111	41.694000
27.346571	0.393323	41.740000
27.376905	0.384385	41.786000
27.408342	0.377321	41.831000
27.654504	0.367580	41.878000
27.684721	0.290181	42.247000
27.714483	0.279305	42.293000
27.744266	0.282950	42.339000
27.775674	0.298666	42.385000
27.806272	0.305823	42.431000
27.837123	0.304761	42.477000
27.867724	0.296927	42.523000
27.899234	0.278722	42.568000
27.930215	0.262231	42.615000
27.959282	0.247091	42.661000
27.989624	0.234216	42.706000
28.020584	0.221005	42.752000
28.051816	0.213339	42.798000
28.082603	0.212754	42.843000
28.113435	0.209390	42.889000
28.143810	0.208483	42.936000
28.246793	0.212130	42.982000
28.277657	0.216620	43.138000
28.308451	0.208920	43.184000
28.554020	0.139161	43.229000
28.585777	0.130377	43.598000
28.616335	0.124326	43.645000
28.647887	0.119389	43.691000
28.678822	0.114377	43.738000
28.709911	0.109148	43.784000
28.740499	0.106673	43.831000
28.770645	0.100922	43.877000
28.801248	0.096129	43.923000
28.832537	0.093584	43.970000
28.863865	0.094406	44.016000
28.979007	0.092699	44.062000
29.010071	0.092595	44.235000
29.041084	0.098552	44.281000
29.146891	0.130314	44.328000
29.177121	0.130562	44.486000
29.207473	0.122433	44.533000
29.238454	0.112589	44.578000
29.268810	0.103637	44.625000
29.300516	0.098283	44.671000
29.331612	0.095153	44.717000
29.362498	0.100478	44.763000
29.392473	0.104034	44.809000
29.423128	0.110260	44.854000
29.452934	0.124939	44.901000
29.484337	0.139287	44.947000
29.514824	0.140200	44.993000
29.546160	0.136655	45.039000
29.577347	0.131427	45.086000
29.608008	0.126936	45.132000
29.713192	0.122673	45.178000
29.743765	0.106911	45.335000
29.773469	0.103201	45.381000
29.878611	0.097659	45.428000
29.910532	0.100468	45.586000
29.941573	0.106269	45.633000
29.972741	0.110738	45.679000
30.003754	0.117050	45.726000
30.034272	0.127351	45.772000
30.063018	0.139921	45.817000
30.093800	0.155049	45.864000
30.123631	0.177547	45.911000
30.154399	0.197826	45.957000
30.184981	0.221600	46.003000
30.216701	0.237496	46.049000
30.247213	0.253291	46.095000
30.278556	0.262053	46.142000
30.309486	0.265282	46.188000
30.339949	0.271210	46.234000
30.443520	0.270127	46.280000
30.473038	0.270200	46.436000
30.504651	0.270398	46.482000
30.610397	0.259134	46.528000
30.641442	0.260907	46.686000
30.672433	0.261179	46.733000
30.703000	0.268273	46.778000
30.733826	0.279700	46.825000
30.763997	0.305053	46.870000
30.793838	0.326399	46.915000
30.823913	0.341369	46.961000
30.855146	0.348870	47.007000
30.886241	0.356964	47.053000
30.916387	0.363851	47.098000
30.946404	0.369768	47.144000
30.977445	0.377332	47.190000
31.007831	0.386207	47.237000
31.038807	0.392708	47.283000
31.069034	0.399422	47.329000
31.317569	0.402988	47.375000
31.348716	0.360764	47.747000
31.379351	0.358546	47.794000
31.410510	0.360002	47.840000
31.441538	0.363224	47.886000
31.472604	0.369016	47.931000
31.503616	0.375682	47.978000
31.533745	0.378984	48.024000
31.564857	0.382578	48.071000
31.595270	0.390591	48.117000
31.626198	0.391278	48.164000
31.656507	0.386695	48.210000
31.688511	0.379046	48.257000
31.719638	0.369204	48.303000
31.750670	0.356806	48.349000
31.780860	0.348847	48.395000
31.812706	0.346377	48.442000
31.915290	0.345294	48.488000
31.946235	0.346272	48.644000
31.977422	0.335594	48.690000
32.222033	0.345514	48.736000
32.252574	0.363338	49.103000
32.284649	0.384008	49.150000
32.315344	0.404152	49.196000
32.346666	0.424490	49.243000
32.376589	0.445907	49.288000
32.407938	0.462978	49.335000
32.438118	0.483086	49.381000
32.468502	0.500864	49.428000
32.499859	0.517990	49.473000
32.530715	0.543004	49.520000
32.644250	0.563653	49.566000
32.674173	0.646691	49.734000
32.704488	0.646618	49.781000
32.810255	0.626480	49.828000
32.840973	0.614804	49.986000
32.872625	0.602577	50.033000
32.903778	0.587232	50.079000
32.934420	0.578946	50.125000
32.965388	0.572957	50.171000
32.996878	0.565993	50.218000
33.026779	0.559952	50.264000
33.056483	0.549035	50.309000
33.086606	0.539877	50.354000
33.117843	0.532380	50.401000
33.149164	0.539741	50.447000
33.180190	0.548037	50.493000
33.211285	0.555002	50.539000
33.242476	0.566698	50.586000
33.273394	0.581484	50.632000
33.376449	0.602619	50.678000
33.407283	0.685154	50.834000
33.437759	0.724794	50.881000
33.544647	0.805881	50.927000
33.576007	0.814716	51.086000
33.606879	0.811945	51.133000
33.638551	0.803923	51.179000
33.668382	0.796265	51.226000
33.699699	0.787764	51.272000
33.730034	0.782930	51.319000
33.760810	0.777879	51.365000
33.791286	0.761719	51.411000
33.822961	0.749990	51.458000
33.854387	0.768065	51.504000
33.885209	0.791181	51.550000
33.916254	0.809684	51.596000
33.947065	0.817831	51.643000
33.978693	0.828551	51.689000
34.009131	0.832252	51.736000
34.112455	0.839512	51.782000
34.142996	0.844647	51.938000
34.174698	0.840457	51.984000
34.278271	0.841600	52.030000
34.310019	0.840044	52.186000
34.341233	0.834051	52.233000
34.371272	0.832148	52.279000
34.401314	0.839209	52.326000
34.432886	0.843284	52.372000
34.463804	0.848544	52.419000
34.495148	0.866458	52.465000
34.526263	0.879557	52.511000
34.557223	0.889819	52.558000
34.588118	0.893448	52.603000
34.618952	0.891399	52.649000
34.650012	0.886501	52.696000
34.680128	0.883510	52.743000
34.710566	0.872914	52.789000
34.741019	0.859566	52.835000
34.986863	0.843180	52.882000
35.018254	0.660025	53.250000
35.049498	0.649660	53.296000
35.080301	0.642324	53.342000
35.110455	0.635022	53.388000
35.141719	0.625092	53.433000
35.172195	0.619133	53.479000
35.202557	0.613565	53.526000
35.232545	0.627686	53.572000
35.263993	0.670181	53.618000
35.294693	0.719522	53.664000
35.326272	0.762709	53.710000
35.357013	0.789002	53.757000
35.388181	0.811504	53.803000
35.419368	0.835216	53.850000
35.449514	0.858087	53.896000
35.480283	0.877739	53.943000
35.583360	0.884921	53.989000
35.615623	0.865616	54.145000
35.646149	0.857058	54.191000
35.891094	0.893376	54.236000
35.922508	0.896401	54.604000
35.952931	0.901787	54.650000
35.983776	0.905248	54.697000
36.013714	0.907297	54.743000
36.044310	0.910114	54.789000
36.075270	0.907762	54.835000
36.106842	0.904593	54.882000
36.137702	0.903512	54.928000
36.168102	0.902254	54.975000
36.199896	0.900954	55.021000
36.310715	0.895393	55.067000
36.341621	0.866229	55.234000
36.373016	0.854773	55.281000
36.478959	0.866998	55.328000
36.510185	0.865471	55.486000
36.541422	0.851455	55.533000
36.572409	0.829923	55.579000
36.603477	0.813163	55.626000
36.633270	0.795673	55.672000
36.664150	0.779690	55.718000
36.694638	0.762843	55.765000
36.726124	0.748167	55.811000
36.756459	0.731728	55.857000
36.787853	0.723542	55.903000
36.818944	0.716668	55.949000
36.850473	0.708761	55.996000
36.880850	0.703300	56.042000
36.912352	0.697696	56.089000
36.942187	0.690592	56.135000
37.046259	0.688185	56.182000
37.077116	0.676820	56.337000
37.108346	0.671099	56.384000
37.213390	0.655443	56.430000
37.243394	0.649274	56.586000
37.275119	0.643023	56.633000
37.305050	0.636107	56.679000
37.336118	0.627793	56.725000
37.366072	0.619385	56.772000
37.397643	0.612713	56.818000
37.428761	0.605312	56.864000
37.459937	0.594956	56.910000
37.491070	0.583770	56.957000
37.521927	0.574861	57.003000
37.553095	0.565181	57.049000
37.582734	0.562165	57.096000
37.613567	0.571046	57.142000
37.644102	0.579123	57.188000
37.675992	0.586078	57.235000
37.780333	0.592845	57.281000
37.811201	0.630388	57.437000
37.841916	0.641951	57.483000
37.945646	0.639618	57.530000
37.976365	0.638889	57.686000
38.006872	0.634230	57.731000
38.038228	0.632146	57.778000
38.068532	0.631189	57.824000
38.100372	0.628887	57.871000
38.131221	0.630576	57.917000
38.162070	0.629347	57.963000
38.192704	0.631189	58.010000
38.223968	0.629169	58.056000
38.253780	0.626950	58.102000
38.284272	0.622043	58.148000
38.315601	0.618885	58.195000
38.346834	0.616133	58.241000
38.378409	0.612578	58.287000
38.409086	0.610801	58.334000
38.654864	0.608305	58.379000
38.686447	0.659441	58.749000
38.717000	0.678642	58.795000
38.748091	0.695174	58.842000
38.778568	0.708625	58.888000
38.809144	0.720125	58.934000
38.839743	0.729163	58.981000
38.870608	0.734113	59.027000
38.901641	0.734810	59.073000
38.932629	0.729569	59.119000
38.963908	0.728060	59.165000
38.994930	0.724660	59.211000
39.024223	0.724503	59.258000
39.055814	0.720533	59.304000
39.087028	0.718927	59.350000
39.117116	0.720721	59.397000
39.147777	0.725795	59.443000
39.252145	0.736694	59.489000
39.283482	0.789128	59.645000
39.314996	0.803108	59.691000
39.559560	0.822904	59.738000
39.589276	0.811464	60.104000
39.619107	0.804578	60.151000
39.651155	0.799441	60.197000
39.682073	0.798567	60.244000
39.713249	0.798682	60.290000
39.743452	0.800681	60.336000
39.775773	0.803537	60.383000
39.806384	0.806444	60.429000
39.838139	0.813777	60.476000
39.868055	0.820717	60.522000
39.978735	0.828885	60.568000
40.010445	0.849678	60.735000
40.041528	0.852277	60.782000
40.147763	0.841392	60.828000
40.178416	0.839752	60.987000
40.208294	0.832908	61.033000
40.240130	0.827186	61.080000
40.270418	0.824353	61.126000
40.301325	0.820767	61.173000
40.331863	0.816099	61.219000
40.364145	0.812454	61.266000
40.394360	0.810308	61.312000
40.425440	0.807037	61.358000
40.456346	0.806392	61.404000
40.487760	0.804390	61.451000
40.518655	0.804307	61.497000
40.549397	0.809089	61.544000
40.578648	0.824643	61.590000
40.610707	0.857869	61.636000
40.715298	0.892887	61.683000
40.746235	0.936766	61.838000
40.776915	0.932144	61.884000
40.880331	0.932384	61.930000
40.910880	0.938687	62.087000
40.941553	0.949594	62.133000
40.972897	0.957618	62.179000
41.003670	0.960458	62.225000
41.034261	0.960354	62.272000
41.066224	0.960009	62.317000
41.096981	0.960229	62.364000
41.127896	0.957765	62.410000
41.157331	0.957070	62.457000
41.188952	0.964802	62.503000
41.219529	0.981875	62.550000
41.250766	1.002605	62.596000
41.281015	1.012304	62.642000
41.313228	1.018887	62.689000
41.343570	1.027899	62.735000
41.448384	1.029927	62.781000
41.479541	1.036446	62.938000
41.509133	1.034180	62.984000
41.613840	1.003063	63.030000
41.644024	0.992956	63.187000
41.676306	0.987478	63.233000
41.707413	0.981489	63.280000
41.738546	0.977344	63.326000
41.768788	0.973767	63.372000
41.800094	0.966976	63.418000
41.830417	0.962819	63.465000
41.860824	0.963732	63.511000
41.892150	0.963691	63.558000
41.922941	0.964740	63.604000
41.953998	0.969846	63.650000
41.984601	0.977208	63.696000
42.016042	0.983684	63.743000
42.047263	0.992782	63.789000
42.077890	0.999841	63.835000
42.323576	1.007480	63.881000
42.392132	1.066405	64.250000
42.423296	1.074259	64.354000
42.453976	1.082001	64.400000
42.485585	1.083062	64.446000
42.515974	1.089771	64.492000
42.547437	1.093459	64.539000
42.577061	1.096772	64.585000
42.608559	1.096628	64.631000
42.638986	1.095772	64.678000
42.670096	1.096688	64.724000
42.700273	1.103992	64.770000
42.731825	1.114014	64.816000
42.762758	1.125683	64.863000
42.794238	1.137151	64.909000
42.913504	1.145935	64.956000
42.944211	1.146903	65.135000
42.975721	1.151539	65.182000
43.222594	1.166948	65.228000
43.253904	1.165116	65.599000
43.284857	1.155997	65.645000
43.316033	1.148516	65.692000
43.346828	1.138451	65.738000
43.377258	1.129880	65.785000
43.407404	1.120982	65.831000
43.438549	1.113158	65.878000
43.469917	1.107395	65.923000
43.500581	1.101167	65.970000
43.531392	1.097197	66.016000
43.646909	1.091812	66.062000
43.678104	1.090521	66.235000
43.708292	1.096020	66.281000
43.813786	1.135347	66.327000
43.844770	1.143536	66.486000
43.875484	1.146213	66.533000
43.906706	1.130659	66.579000
43.937762	1.109052	66.625000
43.968907	1.094299	66.672000
44.000160	1.089207	66.719000
44.031992	1.083997	66.765000
44.062949	1.079737	66.812000
44.093625	1.075714	66.858000
44.123637	1.076475	66.905000
44.154202	1.072267	66.951000
44.185035	1.066318	66.997000
44.215777	1.068829	67.043000
44.246196	1.071016	67.089000
44.277744	1.066151	67.135000
44.382001	1.062797	67.182000
44.412128	1.075924	67.337000
44.441997	1.091498	67.382000
44.547806	1.102230	67.428000
44.578805	1.095197	67.587000
44.609635	1.088769	67.633000
44.640968	1.080936	67.680000
44.671982	1.074162	67.726000
44.702854	1.066267	67.772000
44.732293	1.057473	67.817000
44.763515	1.045744	67.864000
44.793692	1.048838	67.909000
44.824771	1.058308	67.956000
44.855982	1.076673	68.003000
44.887311	1.093248	68.049000
44.917845	1.114304	68.095000
44.948997	1.141787	68.142000
44.980062	1.159440	68.188000
45.011537	1.174889	68.234000
45.159743	1.183493	68.281000
45.190673	1.195651	68.504000
45.294327	1.228644	68.550000
45.324265	1.246760	68.704000
45.356224	1.256784	68.751000
45.387327	1.268476	68.797000
45.418818	1.277897	68.843000
45.448092	1.288710	68.889000
45.479148	1.301141	68.936000
45.509698	1.311571	68.982000
45.540843	1.318661	69.028000
45.571692	1.323785	69.075000
45.603044	1.337542	69.121000
45.633958	1.354592	69.167000
45.664827	1.374456	69.214000
45.696605	1.404086	69.260000
45.727097	1.436822	69.307000
45.757831	1.454568	69.353000
46.003033	1.463397	69.400000
46.032515	1.446867	69.768000
46.064570	1.453863	69.814000
46.095369	1.457678	69.861000
46.126733	1.460901	69.907000
46.157102	1.465008	69.954000
46.188869	1.465057	69.999000
46.219684	1.467088	70.045000
46.251159	1.470153	70.092000
46.280805	1.481179	70.138000
46.312100	1.486003	70.185000
46.342642	1.477013	70.231000
46.373933	1.459727	70.277000
46.404932	1.441231	70.324000
46.435958	1.415760	70.370000
46.467160	1.390631	70.416000
46.582339	1.368706	70.463000
46.612788	1.309552	70.636000
46.643933	1.297401	70.681000
46.891836	1.263185	70.728000
46.922528	1.269755	71.099000
46.953700	1.280393	71.146000
46.982486	1.291059	71.192000
47.013988	1.298534	71.239000
47.044994	1.311654	71.285000
47.076070	1.336793	71.331000
47.107015	1.363470	71.377000
47.138636	1.380131	71.424000
47.169236	1.397150	71.470000
47.200473	1.401370	71.517000
47.315125	1.406466	71.563000
47.345594	1.419710	71.735000
47.376559	1.427319	71.782000
47.482494	1.458998	71.829000
47.513589	1.475682	71.987000
47.544454	1.494993	72.033000
47.575495	1.509318	72.080000
47.606816	1.510745	72.126000
47.638276	1.497118	72.172000
47.669279	1.475343	72.219000
47.699049	1.466639	72.266000
47.729713	1.478637	72.311000
47.760993	1.499224	72.358000
47.791692	1.515391	72.404000
47.822610	1.527446	72.450000
47.853716	1.531621	72.496000
47.885468	1.533749	72.543000
47.916383	1.535550	72.589000
47.946894	1.535010	72.636000
48.049222	1.534154	72.682000
48.080390	1.524913	72.837000
48.111654	1.520079	72.883000
48.216556	1.558344	72.930000
48.247812	1.568451	73.087000
48.278443	1.579846	73.134000
48.310229	1.584232	73.180000
48.339507	1.586318	73.225000
48.370079	1.595030	73.272000
48.400421	1.604218	73.318000
48.432200	1.607843	73.365000
48.463330	1.612593	73.411000
48.494275	1.617417	73.457000
48.524824	1.617449	73.504000
48.556507	1.614513	73.550000
48.587548	1.616240	73.596000
48.617882	1.613688	73.643000
48.648332	1.605614	73.689000
48.678996	1.602563	73.735000
48.783353	1.597697	73.782000
48.815332	1.590760	73.938000
48.846008	1.590342	73.984000
48.951256	1.597186	74.030000
48.981483	1.596250	74.187000
49.010653	1.593623	74.233000
49.041706	1.594135	74.279000
49.072662	1.598001	74.325000
49.103903	1.600480	74.372000
49.135298	1.601166	74.418000
49.166381	1.599582	74.464000
49.197392	1.602731	74.511000
49.228006	1.605312	74.557000
49.258840	1.613252	74.603000
49.289197	1.623262	74.649000
49.319716	1.634961	74.696000
49.350331	1.647391	74.742000
49.381553	1.663102	74.788000
49.413039	1.669259	74.834000
49.658606	1.674727	74.880000
49.689625	1.615982	75.249000
49.720320	1.614439	75.295000
49.751684	1.613292	75.342000
49.782567	1.625887	75.388000
49.813251	1.638024	75.434000
49.842775	1.651297	75.481000
49.874116	1.654443	75.527000
49.905207	1.664818	75.573000
49.936056	1.677248	75.619000
49.966586	1.698580	75.666000
49.998488	1.700757	75.712000
50.029122	1.700736	75.758000
50.060459	1.699078	75.805000
50.090743	1.699681	75.850000
50.121392	1.703046	75.897000
50.151719	1.703171	75.943000
50.256183	1.712480	75.989000
50.287128	1.779487	76.145000
50.318358	1.789582	76.192000
50.562915	1.839749	76.238000
50.594690	1.859772	76.605000
50.625277	1.873579	76.652000
50.655473	1.882530	76.698000
50.685489	1.886263	76.744000
50.716303	1.887895	76.790000
50.747533	1.879983	76.836000
50.777809	1.872634	76.883000
50.809953	1.860636	76.929000
50.840668	1.854668	76.975000
50.872028	1.862278	77.022000
50.982447	1.880640	77.067000
51.012743	1.980758	77.236000
51.045002	2.014459	77.282000
51.150880	2.045133	77.328000
51.182055	2.044822	77.487000
51.212904	2.038843	77.534000
51.243381	2.034186	77.580000
51.273919	2.026757	77.626000
51.304783	2.019126	77.672000
51.335309	2.011762	77.719000
51.366016	1.998706	77.765000
51.397615	1.994541	77.811000
51.428733	1.983904	77.858000
51.459685	1.976694	77.904000
51.489528	1.970224	77.950000
51.521549	1.962192	77.995000
51.550961	1.974549	78.042000
51.581918	1.980665	78.088000
51.611964	1.986592	78.135000
51.716682	1.987894	78.181000
51.748180	1.983873	78.336000
51.779528	1.983476	78.383000
51.884596	2.002457	78.429000
51.914842	2.006573	78.587000
51.945061	2.011157	78.633000
51.975372	2.014562	78.679000
52.006966	2.020735	78.725000
52.038384	2.024891	78.772000
52.069475	2.028985	78.818000
52.100386	2.034913	78.865000
52.131392	2.039423	78.911000
52.162741	2.042551	78.957000
52.193010	2.052738	79.004000
52.224055	2.062396	79.050000
52.253863	2.069866	79.096000
52.284919	2.076742	79.143000
52.315941	2.089691	79.189000
52.347205	2.100516	79.235000
52.450371	2.108672	79.281000
52.482123	2.120069	79.436000
52.512576	2.122551	79.483000
52.616764	2.158846	79.529000
52.648278	2.168152	79.687000
52.678493	2.176926	79.733000
52.709922	2.185149	79.779000
52.741305	2.195639	79.826000
52.772427	2.205931	79.872000
52.802922	2.217554	79.918000
52.834340	2.228717	79.965000
52.865255	2.240172	80.011000
52.895531	2.250529	80.058000
52.926123	2.256681	80.104000
52.957391	2.264555	80.151000
52.988578	2.272349	80.197000
53.020226	2.307490	80.244000
53.050818	2.343523	80.290000
53.082166	2.374511	80.337000
53.327522	2.400098	80.383000
53.358548	2.616023	80.751000
53.389570	2.637607	80.798000
53.420749	2.653325	80.844000
53.451087	2.660641	80.890000
53.481725	2.669446	80.936000
53.511740	2.682110	80.983000
53.543031	2.692204	81.029000
53.574407	2.703816	81.075000
53.605413	2.715211	81.122000
53.636009	2.724961	81.168000
53.667192	2.734599	81.214000
53.698468	2.743062	81.260000
53.728710	2.754239	81.307000
53.758871	2.768718	81.353000
53.789766	2.777255	81.399000
53.821115	2.783663	81.446000
53.925933	2.794717	81.492000
53.956593	2.822343	81.648000
53.987323	2.826970	81.694000
54.231023	2.916441	81.740000
54.262226	2.930463	82.107000
54.292652	2.940487	82.153000
54.323525	2.959133	82.200000
54.354497	2.979230	82.246000
54.385814	2.999262	82.293000
54.417535	3.012409	82.339000
54.448461	3.024375	82.386000
54.479403	3.033930	82.432000
54.510440	3.041229	82.478000
54.540913	3.050285	82.525000
54.650613	3.059027	82.571000
54.682058	3.083180	82.736000
54.712857	3.092375	82.782000
54.817786	3.155335	82.829000
54.849242	3.187555	82.987000
54.879380	3.222826	83.033000
54.910110	3.242715	83.080000
54.940667	3.260498	83.126000
54.972039	3.276105	83.172000
55.003314	3.291314	83.219000
55.034371	3.305138	83.265000
55.064928	3.321853	83.311000
55.096703	3.352045	83.357000
55.127030	3.397445	83.403000
55.157445	3.447121	83.450000
55.186811	3.490348	83.496000
55.218966	3.523936	83.542000
55.249558	3.554500	83.588000
55.281106	3.589382	83.635000
55.385009	3.636945	83.681000
55.415493	3.743054	83.837000
55.446423	3.756143	83.883000
55.551068	3.809702	83.929000
55.581975	3.819431	84.087000
55.613077	3.828088	84.133000
55.643634	3.845437	84.180000
55.675436	3.882027	84.226000
55.706028	3.922431	84.272000
55.737146	3.966940	84.318000
55.767246	4.001770	84.364000
55.798429	4.038145	84.411000
55.828860	4.068286	84.457000
55.859889	4.102292	84.503000
55.890189	4.134235	84.550000
55.921991	4.158142	84.596000
55.952652	4.177001	84.642000
55.984061	4.188015	84.689000
56.014569	4.196443	84.735000
56.117681	4.198320	84.781000
56.148399	4.227980	84.937000
56.179678	4.251461	84.983000
56.285046	4.365809	85.030000
56.315979	4.396496	85.187000
56.347212	4.425170	85.233000
56.378188	4.455797	85.279000
56.409153	4.499273	85.326000
56.439717	4.529969	85.372000
56.470082	4.557222	85.418000
56.501419	4.591705	85.465000
56.531665	4.627638	85.510000
56.563164	4.660530	85.558000
56.593563	4.692252	85.603000
56.625907	4.728538	85.650000
56.656510	4.767646	85.696000
56.687720	4.808120	85.743000
56.717820	4.854565	85.789000
56.749318	4.894624	85.835000
56.994559	4.928254	85.882000
57.024859	5.198155	86.250000
57.055761	5.248378	86.297000
57.086061	5.285547	86.343000
57.117782	5.315393	86.389000
57.148862	5.334243	86.436000
57.179911	5.354772	86.482000
57.211106	5.375638	86.528000
57.242024	5.401965	86.574000
57.272942	5.432102	86.621000
57.302811	5.464057	86.667000
57.333530	5.498325	86.713000
57.363922	5.522265	86.759000
57.395478	5.544214	86.806000
57.425881	5.567842	86.852000
57.457138	5.594171	86.897000
57.487871	5.624456	86.944000
57.591387	5.656427	86.990000
57.622655	5.783424	87.146000
57.652981	5.810866	87.192000
57.898041	6.047426	87.239000
57.928936	6.080582	87.606000
57.960027	6.117120	87.653000
57.991503	6.158309	87.699000
58.022002	6.211032	87.745000
58.053143	6.277658	87.792000
58.084257	6.350888	87.838000
58.114776	6.413719	87.884000
58.144119	6.463101	87.930000
58.175095	6.503522	87.975000
58.206347	6.535084	88.021000
58.319002	6.561905	88.068000
58.349287	6.665607	88.236000
58.378680	6.699873	88.282000
58.485272	6.835019	88.328000
58.516317	6.874553	88.487000
58.547700	6.913675	88.534000
58.578849	6.950501	88.580000
58.609149	6.988744	88.626000
58.641104	7.025434	88.673000
58.672092	7.065104	88.719000
58.702580	7.104711	88.765000
58.732945	7.142413	88.812000
58.763525	7.182283	88.858000
58.794900	7.222115	88.905000
58.825404	7.263246	88.951000
58.856183	7.305239	88.997000
58.887136	7.348791	89.043000
58.919165	7.396654	89.090000
58.949799	7.442543	89.136000
59.053053	7.485406	89.183000
59.083629	7.630734	89.338000
59.114463	7.677533	89.384000
59.218405	7.849532	89.431000
59.249922	7.907016	89.587000
59.281328	7.967768	89.634000
59.312458	8.032786	89.680000
59.343480	8.096394	89.727000
59.375028	8.162975	89.773000
59.404717	8.226800	89.820000
59.435155	8.289683	89.866000
59.466188	8.348733	89.912000
59.497314	8.406079	89.958000
59.528321	8.461376	90.004000
59.559254	8.515889	90.051000
59.590676	8.572374	90.098000
59.622374	8.632105	90.144000
59.653434	8.697094	90.191000
59.683888	8.764582	90.237000
59.787945	8.835055	90.284000
59.818029	9.063488	90.440000
59.849462	9.134005	90.486000
59.953101	9.411294	90.533000
59.984345	9.503575	90.687000
60.015659	9.590931	90.734000
60.045141	9.673147	90.780000
60.074818	9.750401	90.827000
60.104484	9.819267	90.873000
60.135087	9.891094	90.919000
60.165191	9.967591	90.965000
60.197438	10.046879	91.012000
60.228187	10.127289	91.058000
60.259740	10.215506	91.104000
60.290231	10.319397	91.151000
60.321319	10.434524	91.197000
60.351787	10.544431	91.244000
60.381903	10.645358	91.290000
60.412855	10.736508	91.336000
60.657950	10.821955	91.383000
60.689149	11.314543	91.750000
60.720589	11.375008	91.797000
60.751212	11.438856	91.843000
60.783029	11.507950	91.890000
60.813890	11.581951	91.936000
60.845054	11.655583	91.982000
60.874312	11.727909	92.028000
60.906575	11.796004	92.075000
60.936648	11.861187	92.121000
60.967847	11.921871	92.168000
60.998108	11.980765	92.214000
61.029752	12.036658	92.260000
61.060655	12.090210	92.307000
61.092038	12.148243	92.353000
61.122803	12.214392	92.399000
61.154451	12.286108	92.446000
61.256752	12.360828	92.492000
61.287425	12.675436	92.647000
61.319023	12.786732	92.694000
61.563530	13.782284	92.740000
61.593841	13.907312	93.107000
61.625493	14.028105	93.153000
61.656265	14.155637	93.199000
61.687364	14.281938	93.246000
61.717314	14.405618	93.292000
61.748651	14.528808	93.339000
61.779262	14.651200	93.385000
61.810453	14.775619	93.432000
61.841659	14.896913	93.478000
61.872136	15.013640	93.524000
61.981763	15.121142	93.570000
62.013081	15.492770	93.736000
62.044134	15.594412	93.782000
62.150458	15.913277	93.828000
62.180934	16.022824	93.987000
62.212025	16.147024	94.033000
62.243704	16.281121	94.080000
62.274565	16.420137	94.126000
62.304734	16.563260	94.173000
62.335663	16.709670	94.219000
62.366463	16.852797	94.266000
62.397216	16.989881	94.312000
62.427627	17.121539	94.358000
62.459121	17.250667	94.404000
62.490512	17.374873	94.451000
62.521061	17.493142	94.497000
62.552736	17.604719	94.543000
62.583247	17.720688	94.589000
62.613778	17.842355	94.636000
62.717416	17.962299	94.683000
62.748200	18.410328	94.838000
62.778853	18.559596	94.884000
62.883655	19.116295	94.930000
62.915553	19.283050	95.087000
62.945641	19.442528	95.134000
62.975880	19.598839	95.179000
63.005788	19.753017	95.226000
63.037539	19.899779	95.272000
63.068565	20.046337	95.319000
63.099918	20.197778	95.365000
63.130421	20.350799	95.411000
63.162038	20.509421	95.458000
63.193494	20.662360	95.503000
63.223479	20.811081	95.550000
63.253833	20.966978	95.596000
63.284282	21.138226	95.642000
63.315565	21.312632	95.689000
63.346560	21.474363	95.735000
63.450867	21.616339	95.782000
63.481970	22.068173	95.937000
63.513437	22.220557	95.984000
63.617014	22.745028	96.031000
63.648159	22.906402	96.187000
63.678574	23.071879	96.234000
63.709711	23.237261	96.280000
63.741186	23.397570	96.327000
63.772470	23.546781	96.372000
63.803127	23.684960	96.419000
63.834118	23.812318	96.466000
63.865370	23.931112	96.512000
63.896250	24.041592	96.558000
63.926654	24.152693	96.604000
63.956584	24.265909	96.651000
63.987883	24.389095	96.697000
64.019585	24.534763	96.744000
64.050046	24.670499	96.790000
64.080891	24.797882	96.836000
64.325921	24.918016	96.883000
64.357680	25.976671	97.250000
64.388806	26.141940	97.297000
64.419966	26.306937	97.343000
64.449497	26.470962	97.389000
64.480454	26.631279	97.435000
64.511457	26.796060	97.482000
64.542667	26.944751	97.528000
64.573324	27.090489	97.575000
64.605149	27.235235	97.621000
64.635944	27.383426	97.668000
64.667124	27.536499	97.714000
64.698057	27.691318	97.760000
64.728998	27.849477	97.807000
64.758641	28.006927	97.852000
64.788484	28.165460	97.898000
64.819563	28.318957	97.944000
64.924512	28.480939	97.991000
64.956229	29.049861	98.147000
64.986417	29.235338	98.193000
65.231435	30.562940	98.239000
65.261600	30.736133	98.606000
65.291573	30.902992	98.652000
65.322307	31.079641	98.698000
65.352788	31.255475	98.744000
65.383952	31.434070	98.790000
65.415946	31.619338	98.837000
65.446195	31.818106	98.883000
65.477751	32.025023	98.929000
65.507978	32.227253	98.976000
65.539595	32.440603	99.022000
65.650821	32.652772	99.067000
65.681939	33.450761	99.236000
65.712719	33.666246	99.281000
65.818651	34.387292	99.328000
65.848901	34.599853	99.487000
65.880065	34.808798	99.534000
65.910629	35.013503	99.580000
65.941217	35.206810	99.626000
65.972335	35.401878	99.673000
66.003230	35.605708	99.719000
66.034333	35.826438	99.765000
66.065405	36.048896	99.811000
66.096131	36.258461	99.858000
66.128033	36.455732	99.904000
66.158644	36.647759	99.951000
66.189016	36.828058	99.997000
66.218052	37.020958	100.043000
66.249977	37.226715	100.089000
66.281041	37.440590	100.136000
66.385467	37.645910	100.182000
66.416908	38.312469	100.338000
66.446889	38.503230	100.385000
66.551284	39.162816	100.430000
66.580535	39.368290	100.586000
66.611922	39.586741	100.632000
66.642924	39.805297	100.678000
66.673566	40.026950	100.724000
66.704415	40.245643	100.770000
66.735771	40.467876	100.817000
66.766958	40.683762	100.863000
66.797154	40.900737	100.909000
66.828080	41.115983	100.956000
66.858514	41.335990	101.002000
66.889563	41.547922	101.048000
66.920243	41.772257	101.095000
66.952107	42.007289	101.141000
66.982817	42.269701	101.187000
67.014320	42.556049	101.234000
67.117731	42.847977	101.280000
67.147889	43.853278	101.435000
67.178123	44.137881	101.482000
67.283909	45.088707	101.528000
67.315634	45.373607	101.687000
67.346360	45.656492	101.734000
67.377862	45.894686	101.780000
67.408458	46.110803	101.826000
67.439937	46.329379	101.872000
67.471485	46.556984	101.919000
67.501312	46.783752	101.965000
67.531239	47.024932	102.011000
67.562457	47.275120	102.057000
67.593667	47.566970	102.104000
67.624517	47.873092	102.150000
67.655588	48.196189	102.197000
67.686922	48.520293	102.243000
67.718516	48.839309	102.289000
67.748674	49.148111	102.336000
