Sample	2mm tape 2
date	08/01/2025
	
Temperature (K)	77.00
Angle (deg.)	180.000000
field / T	0.020000
	
		
Approx. trace time (s)	60.0	
		
Current / A	V1  -sample/ uV	time/s
0.002873	-0.775110	0.000000
0.002867	-0.728174	0.047000
0.002473	-0.691685	0.093000
0.002336	-0.662490	0.139000
0.002867	-0.643268	0.186000
0.002909	-0.638841	0.341000
0.002527	-0.646384	0.387000
0.017583	-0.708606	0.434000
0.048511	-0.722069	0.800000
0.079173	-0.739389	0.847000
0.109271	-0.753974	0.893000
0.139352	-0.758571	0.939000
0.170506	-0.759091	0.985000
0.201506	-0.770692	1.032000
0.233007	-0.783655	1.078000
0.264039	-0.793248	1.125000
0.295433	-0.800328	1.171000
0.326203	-0.804778	1.218000
0.433170	-0.803336	1.263000
0.464267	-0.786621	1.424000
0.495420	-0.790302	1.470000
0.600545	-0.850149	1.517000
0.630649	-0.867825	1.675000
0.662200	-0.868499	1.722000
0.692607	-0.878998	1.768000
0.724302	-0.900487	1.815000
0.755010	-0.922936	1.861000
0.786102	-0.933385	1.908000
0.817860	-0.923542	1.954000
0.848940	-0.913063	2.000000
0.880149	-0.910803	2.047000
0.910701	-0.923041	2.093000
0.940707	-0.935698	2.139000
0.971063	-0.941740	2.186000
1.002182	-0.934398	2.232000
1.033125	-0.914062	2.278000
1.065408	-0.877192	2.325000
1.169139	-0.828785	2.371000
1.199176	-0.686712	2.526000
1.228711	-0.659269	2.572000
1.333441	-0.605511	2.617000
1.364955	-0.588790	2.775000
1.395793	-0.567692	2.821000
1.426812	-0.549699	2.868000
1.458008	-0.534343	2.915000
1.489009	-0.528291	2.961000
1.520926	-0.538596	3.008000
1.551415	-0.558222	3.054000
1.581400	-0.579727	3.100000
1.611047	-0.606521	3.146000
1.642918	-0.643163	3.192000
1.673405	-0.674487	3.238000
1.704631	-0.701777	3.285000
1.735387	-0.733714	3.331000
1.767251	-0.763022	3.377000
1.798092	-0.785697	3.423000
1.900418	-0.805090	3.469000
1.931293	-0.860202	3.625000
1.962214	-0.873291	3.671000
2.068025	-0.905822	3.718000
2.098138	-0.912123	3.875000
2.129911	-0.915696	3.921000
2.161116	-0.926782	3.967000
2.192039	-0.965162	4.014000
2.222087	-1.012650	4.060000
2.253387	-1.036288	4.107000
2.283976	-1.049038	4.153000
2.315009	-1.059811	4.200000
2.345286	-1.066634	4.246000
2.376611	-1.060292	4.293000
2.408235	-1.049048	4.338000
2.438734	-1.032025	4.384000
2.470498	-1.013848	4.431000
2.500943	-0.979215	4.477000
2.531280	-0.931418	4.523000
2.777044	-0.882720	4.569000
2.805843	-0.745503	4.938000
2.837301	-0.731644	4.984000
2.868418	-0.711757	5.030000
2.899898	-0.691390	5.076000
2.930845	-0.665792	5.123000
2.962203	-0.641788	5.169000
2.993730	-0.618691	5.216000
3.024531	-0.602430	5.262000
3.054884	-0.595178	5.309000
3.085256	-0.587896	5.355000
3.115836	-0.569893	5.400000
3.146211	-0.546409	5.447000
3.177427	-0.531854	5.493000
3.208679	-0.526936	5.540000
3.240198	-0.517738	5.586000
3.270852	-0.503310	5.632000
3.373830	-0.489841	5.678000
3.404230	-0.478860	5.834000
3.435368	-0.472141	5.880000
3.680287	-0.407011	5.926000
3.711594	-0.395189	6.294000
3.742497	-0.382131	6.340000
3.773629	-0.369885	6.386000
3.804310	-0.367441	6.432000
3.835516	-0.378951	6.478000
3.866736	-0.392653	6.524000
3.895774	-0.400274	6.571000
3.927013	-0.407022	6.617000
3.958450	-0.403477	6.663000
3.989138	-0.398880	6.709000
4.101448	-0.389587	6.755000
4.131419	-0.556596	6.924000
4.162093	-0.587250	6.970000
4.267839	-0.676334	7.016000
4.299293	-0.611460	7.175000
4.330188	-0.775704	7.221000
4.361231	-0.802753	7.267000
4.392346	-0.840117	7.314000
4.423509	-0.879645	7.360000
4.454801	-0.919280	7.407000
4.484421	-0.966339	7.452000
4.515551	-1.011368	7.499000
4.545913	-1.052612	7.545000
4.577355	-1.096607	7.592000
4.608460	-1.146922	7.638000
4.639984	-1.189421	7.685000
4.670788	-1.230410	7.731000
4.701633	-1.264884	7.778000
4.732909	-1.288006	7.824000
4.835070	-1.303455	7.870000
4.866147	-1.369184	8.025000
4.897382	-1.382176	8.072000
5.002376	-1.418407	8.118000
5.033305	-1.426940	8.274000
5.064368	-1.430847	8.321000
5.095615	-1.431066	8.368000
5.126000	-1.430763	8.414000
5.156483	-1.428054	8.460000
5.186345	-1.417575	8.506000
5.218001	-1.407085	8.553000
5.249301	-1.404552	8.600000
5.280922	-1.402491	8.646000
5.311504	-1.397876	8.693000
5.343421	-1.390840	8.739000
5.374360	-1.390478	8.786000
5.405787	-1.392770	8.832000
5.436229	-1.394386	8.879000
5.467506	-1.396426	8.925000
5.570126	-1.394738	8.971000
5.600574	-1.363090	9.126000
5.631634	-1.352652	9.172000
5.736031	-1.354776	9.218000
5.767443	-1.354037	9.375000
5.796942	-1.351910	9.421000
5.827950	-1.347974	9.467000
5.858224	-1.341472	9.514000
5.889301	-1.346013	9.560000
5.920835	-1.355277	9.606000
5.951703	-1.365963	9.652000
5.983019	-1.376539	9.699000
6.013253	-1.384509	9.745000
6.045144	-1.389478	9.791000
6.075760	-1.385215	9.838000
6.106489	-1.378790	9.884000
6.135817	-1.373872	9.931000
6.167834	-1.361359	9.977000
6.198180	-1.346462	10.024000
6.444115	-1.333116	10.069000
6.475612	-1.296490	10.438000
6.506320	-1.295844	10.484000
6.537844	-1.293526	10.531000
6.569109	-1.291937	10.577000
6.599941	-1.287113	10.624000
6.631201	-1.272254	10.670000
6.661645	-1.254113	10.717000
6.692319	-1.235943	10.763000
6.722564	-1.204556	10.810000
6.754235	-1.169388	10.856000
6.784952	-1.124766	10.902000
6.816366	-1.058404	10.949000
6.846414	-0.988822	10.995000
6.877990	-0.928514	11.041000
6.908954	-0.881514	11.087000
6.940309	-0.839679	11.134000
7.042679	-0.798794	11.180000
7.073590	-0.655904	11.336000
7.104816	-0.614814	11.382000
7.350419	-0.312461	11.428000
7.380979	-0.292261	11.796000
7.412552	-0.284373	11.842000
7.442910	-0.280315	11.889000
7.474778	-0.277561	11.935000
7.505902	-0.263410	11.982000
7.536346	-0.240953	12.028000
7.565618	-0.218566	12.075000
7.597307	-0.202897	12.121000
7.628933	-0.191925	12.168000
7.659661	-0.188854	12.214000
7.768394	-0.192719	12.260000
7.798656	-0.222742	12.424000
7.830470	-0.222577	12.470000
7.936670	-0.180100	12.516000
7.967504	-0.171300	12.675000
7.998575	-0.169631	12.721000
8.029672	-0.174257	12.768000
8.060916	-0.173779	12.815000
8.091378	-0.170862	12.861000
8.121851	-0.180038	12.907000
8.151707	-0.199531	12.953000
8.183136	-0.221024	12.999000
8.214282	-0.241695	13.046000
8.245300	-0.256684	13.092000
8.276384	-0.259679	13.138000
8.307174	-0.265852	13.185000
8.338653	-0.276261	13.231000
8.368986	-0.283985	13.277000
8.399273	-0.281656	13.324000
8.503665	-0.280931	13.370000
8.534457	-0.324915	13.525000
8.565953	-0.331715	13.572000
8.670510	-0.328771	13.618000
8.701568	-0.314012	13.775000
8.732410	-0.287677	13.822000
8.762145	-0.264482	13.868000
8.793457	-0.256957	13.914000
8.824588	-0.261823	13.961000
8.855559	-0.270203	14.008000
8.886680	-0.283996	14.053000
8.917892	-0.294997	14.100000
8.948587	-0.292031	14.146000
8.979464	-0.268767	14.192000
9.010843	-0.232462	14.239000
9.041761	-0.211137	14.285000
9.071844	-0.222929	14.332000
9.102093	-0.248254	14.378000
9.133381	-0.257455	14.424000
9.238170	-0.245756	14.471000
9.269251	-0.132415	14.626000
9.299744	-0.094798	14.672000
9.403465	-0.079922	14.718000
9.433602	-0.089722	14.875000
9.464274	-0.091411	14.922000
9.495581	-0.094421	14.968000
9.526541	-0.106081	15.014000
9.557960	-0.128800	15.060000
9.588858	-0.151734	15.107000
9.619853	-0.166790	15.153000
9.650948	-0.173738	15.199000
9.680756	-0.165497	15.245000
9.710425	-0.156547	15.291000
9.742412	-0.151504	15.337000
9.773206	-0.151776	15.384000
9.804250	-0.155609	15.430000
9.835099	-0.157289	15.475000
9.866417	-0.165121	15.522000
10.112381	-0.171683	15.569000
10.143225	-0.129615	15.937000
10.173445	-0.129207	15.984000
10.204934	-0.130344	16.030000
10.234760	-0.120999	16.076000
10.265536	-0.105006	16.122000
10.295605	-0.099151	16.168000
10.327312	-0.104403	16.215000
10.358227	-0.109007	16.261000
10.389234	-0.114259	16.306000
10.419572	-0.106361	16.353000
10.452020	-0.083753	16.400000
10.482249	-0.051597	16.446000
10.512684	-0.034976	16.492000
10.542450	-0.030037	16.539000
10.573864	-0.029299	16.585000
10.604660	-0.033262	16.631000
10.709182	-0.042552	16.677000
10.740707	-0.092193	16.833000
10.770629	-0.115883	16.879000
11.015812	-0.346258	16.926000
11.046915	-0.376801	17.293000
11.076977	-0.403663	17.340000
11.107969	-0.424552	17.386000
11.138181	-0.442278	17.432000
11.170105	-0.461159	17.478000
11.201273	-0.478974	17.524000
11.232030	-0.493550	17.571000
11.263051	-0.508341	17.617000
11.294318	-0.528678	17.663000
11.324318	-0.548721	17.709000
11.436751	-0.558442	17.756000
11.467455	-0.603199	17.924000
11.499153	-0.617899	17.970000
11.603915	-0.673635	18.017000
11.635848	-0.692993	18.175000
11.666082	-0.701901	18.222000
11.696209	-0.704063	18.267000
11.726436	-0.707754	18.314000
11.758218	-0.706611	18.360000
11.788868	-0.707350	18.406000
11.820164	-0.709282	18.452000
11.851447	-0.721415	18.499000
11.882356	-0.735846	18.545000
11.913560	-0.751274	18.591000
11.942963	-0.765973	18.637000
11.973901	-0.787212	18.683000
12.004466	-0.801983	18.729000
12.035430	-0.809135	18.776000
12.066423	-0.808532	18.822000
12.171663	-0.794976	18.869000
12.201877	-0.778314	19.025000
12.233204	-0.774685	19.071000
12.337674	-0.786453	19.117000
12.368418	-0.773427	19.275000
12.399368	-0.769976	19.322000
12.430130	-0.763851	19.368000
12.461462	-0.754756	19.415000
12.492598	-0.750846	19.461000
12.524114	-0.750710	19.507000
12.554754	-0.741897	19.554000
12.586286	-0.732601	19.600000
12.617539	-0.734128	19.647000
12.647337	-0.736311	19.693000
12.677113	-0.736499	19.739000
12.708461	-0.743683	19.786000
12.739780	-0.755325	19.832000
12.771089	-0.761533	19.879000
12.802522	-0.764610	19.925000
12.906457	-0.769340	19.972000
12.937224	-0.762645	20.127000
12.967776	-0.773218	20.173000
13.070949	-0.802379	20.220000
13.102339	-0.804426	20.375000
13.132866	-0.813202	20.421000
13.163357	-0.831977	20.467000
13.194398	-0.858103	20.513000
13.225408	-0.877968	20.559000
13.255279	-0.888068	20.606000
13.286145	-0.906177	20.652000
13.317230	-0.930574	20.698000
13.348148	-0.948189	20.744000
13.378593	-0.961452	20.791000
13.409940	-0.969369	20.837000
13.441180	-0.971483	20.883000
13.471965	-0.968536	20.929000
13.502399	-0.961971	20.976000
13.533460	-0.936930	21.022000
13.778674	-0.887943	21.069000
13.808975	-0.513593	21.436000
13.839633	-0.479036	21.482000
13.870104	-0.447659	21.528000
13.901927	-0.429623	21.575000
13.932684	-0.422917	21.621000
13.964187	-0.429686	21.668000
13.995278	-0.451350	21.714000
14.026392	-0.488119	21.761000
14.057208	-0.530467	21.807000
14.087109	-0.567482	21.853000
14.117594	-0.590468	21.899000
14.149042	-0.608937	21.946000
14.179987	-0.644985	21.992000
14.210773	-0.661392	22.038000
14.241866	-0.655820	22.085000
14.273115	-0.633024	22.131000
14.376948	-0.597855	22.178000
14.407151	-0.536750	22.333000
14.438176	-0.533595	22.379000
14.682156	-0.538115	22.426000
14.713958	-0.528728	22.793000
14.744963	-0.527593	22.839000
14.776059	-0.532709	22.886000
14.806970	-0.547034	22.931000
14.838170	-0.565546	22.978000
14.869327	-0.586675	23.025000
14.900531	-0.611668	23.071000
14.930371	-0.642037	23.118000
14.961143	-0.669789	23.164000
14.991889	-0.698698	23.210000
15.105319	-0.728442	23.256000
15.136207	-0.846801	23.424000
15.166218	-0.882303	23.470000
15.272069	-0.998018	23.517000
15.302473	-1.035308	23.674000
15.333815	-1.075092	23.721000
15.365030	-1.108283	23.768000
15.396235	-1.145882	23.815000
15.427898	-1.173928	23.861000
15.458619	-1.202134	23.908000
15.489809	-1.228330	23.954000
15.520179	-1.255227	24.000000
15.551207	-1.278149	24.046000
15.580980	-1.306210	24.093000
15.612056	-1.337524	24.139000
15.642357	-1.359880	24.185000
15.674156	-1.384245	24.231000
15.705163	-1.411676	24.278000
15.736670	-1.434234	24.324000
15.841095	-1.449987	24.371000
15.870752	-1.501950	24.526000
15.901989	-1.508327	24.573000
16.004922	-1.512367	24.619000
16.036552	-1.503823	24.775000
16.067522	-1.482167	24.821000
16.099151	-1.447204	24.868000
16.129958	-1.400092	24.913000
16.160857	-1.346596	24.960000
16.191708	-1.288993	25.006000
16.221476	-1.244278	25.053000
16.252507	-1.223608	25.099000
16.283496	-1.211511	25.146000
16.315116	-1.204275	25.192000
16.345074	-1.202644	25.238000
16.376672	-1.204628	25.284000
16.408047	-1.196331	25.331000
16.438658	-1.183608	25.377000
16.468591	-1.172764	25.423000
16.572258	-1.163906	25.469000
16.602986	-1.128073	25.625000
16.634815	-1.111452	25.672000
16.740044	-1.041309	25.718000
16.770480	-1.016669	25.875000
16.802339	-0.999582	25.921000
16.832099	-0.994246	25.968000
16.863144	-0.971870	26.014000
16.893707	-0.939055	26.060000
16.924264	-0.904425	26.107000
16.954483	-0.878616	26.153000
16.986415	-0.863269	26.199000
17.017633	-0.856719	26.246000
17.048390	-0.847862	26.292000
17.079581	-0.827735	26.338000
17.110386	-0.805600	26.384000
17.141464	-0.788624	26.430000
17.170836	-0.780861	26.476000
17.201767	-0.780777	26.522000
17.447096	-0.788492	26.569000
17.478041	-0.973423	26.938000
17.510055	-0.955535	26.984000
17.540299	-0.931710	27.030000
17.572012	-0.905340	27.077000
17.603455	-0.876316	27.123000
17.634396	-0.841145	27.170000
17.665086	-0.814231	27.217000
17.695466	-0.797231	27.263000
17.726338	-0.779352	27.309000
17.756851	-0.755314	27.356000
17.787984	-0.735699	27.402000
17.819387	-0.724274	27.449000
17.850628	-0.714565	27.495000
17.881050	-0.707908	27.541000
17.912449	-0.708608	27.587000
17.943075	-0.707504	27.633000
18.045993	-0.707514	27.680000
18.077251	-0.725675	27.835000
18.108354	-0.729586	27.882000
18.352851	-0.698458	27.928000
18.383840	-0.689332	28.294000
18.414655	-0.681380	28.341000
18.446409	-0.675145	28.387000
18.477486	-0.666884	28.434000
18.507603	-0.659205	28.479000
18.538808	-0.654112	28.526000
18.568944	-0.649403	28.573000
18.600206	-0.638098	28.620000
18.630625	-0.628649	28.666000
18.662047	-0.624805	28.712000
18.772898	-0.623150	28.758000
18.802696	-0.646746	28.924000
18.833943	-0.644403	28.970000
18.939996	-0.665320	29.017000
18.970685	-0.663541	29.174000
19.002128	-0.658509	29.221000
19.033557	-0.646894	29.268000
19.064099	-0.639464	29.314000
19.094792	-0.630618	29.360000
19.125465	-0.626306	29.406000
19.155480	-0.616544	29.452000
19.186170	-0.598270	29.498000
19.216579	-0.570330	29.543000
19.247812	-0.537959	29.589000
19.278606	-0.519061	29.636000
19.309983	-0.514478	29.682000
19.341003	-0.516738	29.729000
19.372276	-0.509226	29.776000
19.402563	-0.494486	29.822000
19.506201	-0.479984	29.869000
19.537559	-0.459984	30.024000
19.567930	-0.472004	30.071000
19.674129	-0.536530	30.116000
19.705819	-0.554356	30.276000
19.736545	-0.566817	30.322000
19.767245	-0.575217	30.368000
19.796866	-0.582039	30.415000
19.827650	-0.583384	30.460000
19.858461	-0.582914	30.507000
19.890237	-0.581134	30.553000
19.920040	-0.584634	30.598000
19.951486	-0.582133	30.645000
19.982547	-0.584467	30.691000
20.014227	-0.591446	30.737000
20.044279	-0.581705	30.784000
20.074673	-0.560471	30.830000
20.104977	-0.547114	30.876000
20.136281	-0.534406	30.923000
20.240263	-0.513123	30.969000
20.270688	-0.480444	31.124000
20.302716	-0.479848	31.171000
20.407914	-0.508225	31.217000
20.438738	-0.521154	31.375000
20.468554	-0.531811	31.421000
20.499597	-0.543283	31.468000
20.530684	-0.556897	31.514000
20.562336	-0.574829	31.561000
20.593035	-0.590625	31.607000
20.623566	-0.602062	31.653000
20.654762	-0.619451	31.699000
20.685748	-0.633034	31.745000
20.716622	-0.642473	31.792000
20.746063	-0.655662	31.838000
20.777955	-0.672978	31.885000
20.808409	-0.690799	31.931000
20.839676	-0.709208	31.978000
20.870243	-0.727330	32.024000
21.116020	-0.742175	32.070000
21.147380	-0.635253	32.439000
21.178864	-0.599739	32.485000
21.209725	-0.562411	32.532000
21.241077	-0.522216	32.578000
21.272036	-0.478545	32.625000
21.303269	-0.435343	32.671000
21.332399	-0.387809	32.718000
21.363909	-0.337640	32.764000
21.394806	-0.300971	32.810000
21.426372	-0.277103	32.857000
21.456352	-0.250476	32.903000
21.488097	-0.219491	32.949000
21.519024	-0.202530	32.995000
21.550298	-0.193227	33.042000
21.579854	-0.185206	33.088000
21.611879	-0.171892	33.135000
21.715654	-0.159089	33.181000
21.746205	-0.108102	33.337000
21.777461	-0.106913	33.384000
22.022237	-0.095933	33.430000
22.052179	-0.091684	33.796000
22.084494	-0.097973	33.842000
22.114525	-0.103528	33.889000
22.144832	-0.112862	33.935000
22.174369	-0.114998	33.980000
22.205916	-0.105935	34.027000
22.237220	-0.091443	34.073000
22.268538	-0.071525	34.120000
22.298838	-0.049343	34.166000
22.330265	-0.025889	34.212000
22.440426	-0.005917	34.258000
22.471600	0.014730	34.424000
22.502499	0.004833	34.471000
22.608291	-0.038228	34.517000
22.639155	-0.049159	34.676000
22.670404	-0.047730	34.722000
22.700899	-0.029330	34.768000
22.731076	-0.009576	34.814000
22.761349	0.010519	34.860000
22.792630	0.033110	34.907000
22.823890	0.050661	34.953000
22.854922	0.062708	34.999000
22.885370	0.077638	35.044000
22.917194	0.092825	35.092000
22.948165	0.099270	35.138000
22.978831	0.094094	35.184000
23.008230	0.087646	35.231000
23.039214	0.077502	35.277000
23.070850	0.066734	35.323000
23.175063	0.056172	35.369000
23.206229	0.041323	35.525000
23.236751	0.036802	35.572000
23.341894	0.066639	35.618000
23.372113	0.091079	35.775000
23.402683	0.095456	35.821000
23.433573	0.092856	35.867000
23.464700	0.094072	35.914000
23.495753	0.091932	35.961000
23.526875	0.087356	36.007000
23.558004	0.086930	36.053000
23.588696	0.089237	36.100000
23.619847	0.093686	36.146000
23.651226	0.101173	36.193000
23.681251	0.115884	36.239000
23.711172	0.131249	36.285000
23.742338	0.149785	36.331000
23.773992	0.172502	36.377000
23.804732	0.191677	36.423000
23.908890	0.204250	36.470000
23.939920	0.225119	36.625000
23.969951	0.239660	36.672000
24.073962	0.228929	36.717000
24.105635	0.225419	36.876000
24.136764	0.223314	36.922000
24.168092	0.219212	36.969000
24.198693	0.215326	37.015000
24.229853	0.206375	37.061000
24.261042	0.194363	37.107000
24.292232	0.172429	37.154000
24.322232	0.147799	37.200000
24.353348	0.126322	37.247000
24.384080	0.104979	37.293000
24.414913	0.083030	37.340000
24.445978	0.071981	37.386000
24.477487	0.074236	37.433000
24.508444	0.078011	37.479000
24.539460	0.084016	37.526000
24.784566	0.088450	37.572000
24.943406	0.176409	37.940000
24.973992	0.171553	38.176000
25.004743	0.166906	38.223000
25.034626	0.161980	38.270000
25.065779	0.150937	38.316000
25.096486	0.144876	38.362000
25.128094	0.143377	38.408000
25.159046	0.135238	38.455000
25.190045	0.130581	38.501000
25.221288	0.136757	38.547000
25.251761	0.141446	38.593000
25.282819	0.141498	38.640000
25.385176	0.146915	38.687000
25.417139	0.212645	38.842000
25.447743	0.242210	38.889000
25.693404	0.353851	38.935000
25.724293	0.349957	39.302000
25.755964	0.351695	39.349000
25.786958	0.369259	39.395000
25.818258	0.393115	39.442000
25.847601	0.415333	39.489000
25.878861	0.440005	39.535000
25.908963	0.463012	39.581000
25.940364	0.479292	39.626000
25.970731	0.494344	39.673000
26.002667	0.505384	39.719000
26.108209	0.504656	39.766000
26.139651	0.417599	39.924000
26.170691	0.405277	39.971000
26.275881	0.417059	40.017000
26.306350	0.411008	40.175000
26.335898	0.407185	40.221000
26.367523	0.402773	40.268000
26.398330	0.422891	40.314000
26.429955	0.454995	40.360000
26.460754	0.492435	40.406000
26.491896	0.532675	40.452000
26.523159	0.567854	40.499000
26.553327	0.613856	40.545000
26.584594	0.652097	40.592000
26.614529	0.684737	40.638000
26.645382	0.714303	40.684000
26.675968	0.738079	40.730000
26.707222	0.758624	40.776000
26.738066	0.781437	40.822000
26.842215	0.803723	40.869000
26.872824	0.841619	41.025000
26.903368	0.839656	41.071000
27.008698	0.831947	41.117000
27.038913	0.811044	41.275000
27.070792	0.803326	41.321000
27.101766	0.814669	41.368000
27.133612	0.833623	41.414000
27.163501	0.851328	41.461000
27.195034	0.870104	41.507000
27.226342	0.880127	41.553000
27.256257	0.885626	41.600000
27.286620	0.892539	41.646000
27.317479	0.906782	41.692000
27.348995	0.920648	41.739000
27.380038	0.928501	41.785000
27.411171	0.936680	41.832000
27.441984	0.936606	41.878000
27.473914	0.923207	41.924000
27.622291	0.901564	41.971000
27.653190	0.830992	42.194000
27.754885	0.861224	42.241000
27.786202	0.870574	42.395000
27.818093	0.868047	42.442000
27.848734	0.859199	42.488000
27.879943	0.842335	42.535000
27.911111	0.816840	42.581000
27.942021	0.795181	42.627000
27.973104	0.783042	42.673000
28.003108	0.773177	42.720000
28.033927	0.760060	42.766000
28.064922	0.746069	42.813000
28.095832	0.734643	42.859000
28.126631	0.710876	42.904000
28.157790	0.691498	42.951000
28.188566	0.685393	42.998000
28.449680	0.688819	43.044000
28.479944	0.722773	43.437000
28.511886	0.727767	43.483000
28.542862	0.731182	43.529000
28.573987	0.734788	43.575000
28.604825	0.746036	43.622000
28.636166	0.770862	43.668000
28.666899	0.804148	43.715000
28.697067	0.839280	43.761000
28.727779	0.872381	43.807000
28.758674	0.887997	43.854000
28.789368	0.868286	43.900000
28.819885	0.843603	43.946000
28.851168	0.834976	43.992000
28.882730	0.829372	44.039000
28.913440	0.823683	44.085000
28.943488	0.827539	44.131000
29.047636	0.847471	44.177000
29.078423	0.967525	44.333000
29.109757	0.980875	44.380000
29.354377	0.786961	44.427000
29.385447	0.762000	44.793000
29.416328	0.738132	44.840000
29.448019	0.710158	44.886000
29.479588	0.682581	44.933000
29.509999	0.659149	44.979000
29.539700	0.634982	45.024000
29.571304	0.606559	45.072000
29.601373	0.585021	45.118000
29.632583	0.570921	45.164000
29.663079	0.551345	45.211000
29.775703	0.539120	45.257000
29.807047	0.585237	45.425000
29.837491	0.626386	45.471000
29.942682	0.675704	45.518000
29.973809	0.692361	45.676000
30.004138	0.713398	45.722000
30.034412	0.740445	45.767000
30.063485	0.763644	45.814000
30.094512	0.780385	45.860000
30.125035	0.799231	45.907000
30.156126	0.840686	45.953000
30.186201	0.889825	45.999000
30.217225	0.932668	46.045000
30.247442	0.967526	46.091000
30.279522	1.010463	46.138000
30.310268	1.050169	46.184000
30.341693	1.076527	46.230000
30.371901	1.092029	46.277000
30.403629	1.105344	46.323000
30.505794	1.114407	46.369000
30.536570	1.122221	46.525000
30.568080	1.112532	46.571000
30.673426	1.078061	46.617000
30.704485	1.075685	46.775000
30.735747	1.076601	46.822000
30.766534	1.072693	46.868000
30.797887	1.060371	46.914000
30.827691	1.053618	46.961000
30.858394	1.048505	47.007000
30.889564	1.032156	47.053000
30.920916	1.002053	47.100000
30.951018	0.965426	47.147000
30.983098	0.928502	47.193000
31.013700	0.898414	47.239000
31.044908	0.874004	47.285000
31.075242	0.851164	47.332000
31.107344	0.830659	47.378000
31.137238	0.824196	47.424000
31.240905	0.838710	47.471000
31.272050	0.888403	47.627000
31.303183	0.887093	47.673000
31.408009	0.846391	47.720000
31.438282	0.843634	47.876000
31.469841	0.850682	47.922000
31.498960	0.858481	47.968000
31.529890	0.856068	48.014000
31.560733	0.850184	48.060000
31.592006	0.854039	48.107000
31.622942	0.851234	48.153000
31.654139	0.842125	48.199000
31.685355	0.832614	48.245000
31.716357	0.820182	48.292000
31.747251	0.799951	48.338000
31.776471	0.778584	48.384000
31.807406	0.762259	48.431000
31.838820	0.744341	48.476000
31.869842	0.723087	48.523000
32.114699	0.707061	48.569000
32.144754	0.600146	48.937000
32.176904	0.596019	48.983000
32.207980	0.599034	49.029000
32.238729	0.608390	49.075000
32.268064	0.623802	49.122000
32.298594	0.641753	49.167000
32.330089	0.672569	49.213000
32.360569	0.714367	49.259000
32.391130	0.754299	49.306000
32.423197	0.772803	49.352000
32.453992	0.771616	49.399000
32.485057	0.758584	49.445000
32.516547	0.746038	49.492000
32.546636	0.739320	49.538000
32.577189	0.735224	49.584000
32.607277	0.727892	49.631000
32.711634	0.718950	49.677000
32.742936	0.705357	49.832000
32.774250	0.706718	49.878000
33.019141	0.636448	49.925000
33.050520	0.611923	50.292000
33.081519	0.584832	50.339000
33.111900	0.565597	50.386000
33.141919	0.553185	50.432000
33.173079	0.545939	50.478000
33.204243	0.541187	50.524000
33.234816	0.546718	50.571000
33.266041	0.559651	50.617000
33.297063	0.565089	50.663000
33.327905	0.575888	50.709000
33.439883	0.604168	50.756000
33.470725	0.717574	50.924000
33.502093	0.737703	50.971000
33.607306	0.793101	51.017000
33.638608	0.799809	51.176000
33.669638	0.797256	51.221000
33.700737	0.787184	51.268000
33.731083	0.770898	51.314000
33.761167	0.746240	51.360000
33.792185	0.728352	51.406000
33.823027	0.712680	51.452000
33.854490	0.694939	51.499000
33.885804	0.679416	51.546000
33.916895	0.663667	51.592000
33.947841	0.642798	51.639000
33.979016	0.619003	51.685000
34.010319	0.596113	51.731000
34.040288	0.570779	51.778000
34.070887	0.536793	51.824000
34.174041	0.504452	51.870000
34.205943	0.401675	52.026000
34.237176	0.376044	52.072000
34.342140	0.276143	52.118000
34.373201	0.249054	52.276000
34.402609	0.224626	52.322000
34.434680	0.202767	52.369000
34.465206	0.186589	52.415000
34.496482	0.171730	52.462000
34.526916	0.158225	52.508000
34.558387	0.151156	52.554000
34.589421	0.148086	52.601000
34.621196	0.143492	52.647000
34.651403	0.141581	52.694000
34.683128	0.139616	52.740000
34.714100	0.134627	52.787000
34.744119	0.127980	52.833000
34.774630	0.120869	52.880000
34.805948	0.113022	52.926000
34.910132	0.104092	52.971000
34.940985	0.105368	53.128000
34.972556	0.104925	53.174000
35.075230	0.116076	53.221000
35.105853	0.121870	53.376000
35.136210	0.126485	53.422000
35.167263	0.131922	53.468000
35.198680	0.138855	53.514000
35.229057	0.147881	53.561000
35.260843	0.154273	53.607000
35.291946	0.160669	53.654000
35.323498	0.170625	53.700000
35.352657	0.178373	53.747000
35.384255	0.188174	53.793000
35.414820	0.202457	53.839000
35.445619	0.220665	53.886000
35.475776	0.240169	53.932000
35.507962	0.255901	53.978000
35.538646	0.271299	54.024000
35.784363	0.282998	54.070000
35.815447	0.302461	54.439000
35.846791	0.308338	54.486000
35.877425	0.316745	54.532000
35.908113	0.326089	54.578000
35.938128	0.329443	54.625000
35.969561	0.338537	54.671000
36.000361	0.347069	54.718000
36.032093	0.351485	54.764000
36.062066	0.348770	54.811000
36.094233	0.350507	54.857000
36.125063	0.349811	54.904000
36.156308	0.345642	54.950000
36.186527	0.349037	54.996000
36.218417	0.362091	55.043000
36.247860	0.375980	55.089000
36.279116	0.391691	55.135000
36.383358	0.417841	55.182000
36.413446	0.507432	55.338000
36.445106	0.535608	55.384000
36.689855	0.672453	55.430000
36.721080	0.685528	55.797000
36.751130	0.700947	55.843000
36.780412	0.712377	55.889000
36.811968	0.728453	55.935000
36.843032	0.751976	55.982000
36.874162	0.782074	56.028000
36.904934	0.792025	56.074000
36.936705	0.806503	56.121000
36.968253	0.838824	56.167000
36.998622	0.877900	56.214000
37.108042	0.904579	56.260000
37.138403	0.926174	56.424000
37.170032	0.924790	56.470000
37.276026	0.929644	56.517000
37.307036	0.930579	56.676000
37.338104	0.920506	56.722000
37.367217	0.900532	56.769000
37.398488	0.873388	56.815000
37.429818	0.844506	56.860000
37.460179	0.812618	56.906000
37.490809	0.774728	56.952000
37.522246	0.745995	56.999000
37.553782	0.718625	57.045000
37.584363	0.691455	57.091000
37.613441	0.668109	57.137000
37.644970	0.650264	57.184000
37.676207	0.634261	57.230000
37.706956	0.624283	57.277000
37.738020	0.621385	57.323000
37.841781	0.625843	57.369000
37.873345	0.638460	57.525000
37.904348	0.661109	57.571000
38.008593	0.775346	57.617000
38.038858	0.797127	57.775000
38.069431	0.808046	57.820000
38.100568	0.808057	57.865000
38.131137	0.798503	57.911000
38.161525	0.784189	57.957000
38.191252	0.769188	58.002000
38.221920	0.753781	58.048000
38.252005	0.737985	58.094000
38.282969	0.738142	58.141000
38.313565	0.757155	58.187000
38.345155	0.786344	58.233000
38.376035	0.812703	58.279000
38.406830	0.839291	58.325000
38.437188	0.871727	58.371000
38.467610	0.909257	58.417000
38.575152	0.953605	58.463000
38.606577	1.069172	58.625000
38.636689	1.089299	58.671000
38.742621	1.091673	58.718000
38.773550	1.092697	58.876000
38.804265	1.089905	58.922000
38.835648	1.094499	58.969000
38.867066	1.105041	59.015000
38.898476	1.109012	59.061000
38.928349	1.109409	59.107000
38.959014	1.106782	59.154000
38.988676	1.103303	59.200000
39.020258	1.095352	59.246000
39.051031	1.090323	59.292000
39.082794	1.088091	59.339000
39.113086	1.082350	59.385000
39.144223	1.071620	59.431000
39.175407	1.069255	59.478000
39.207082	1.077965	59.524000
39.452284	1.084726	59.571000
39.482837	1.035456	59.939000
39.512703	1.018946	59.985000
39.544262	0.999567	60.032000
39.574781	0.978203	60.078000
39.606268	0.961862	60.124000
39.636514	0.947316	60.171000
39.668308	0.936982	60.217000
39.699165	0.933767	60.263000
39.730701	0.945943	60.310000
39.760525	0.964366	60.356000
39.790944	0.979618	60.402000
39.821213	0.998194	60.448000
39.852346	1.022884	60.494000
39.883226	1.048368	60.540000
39.914010	1.068643	60.586000
39.945250	1.081037	60.632000
40.049722	1.081298	60.679000
40.080552	1.027666	60.835000
40.109069	1.012238	60.880000
40.354790	1.093499	60.927000
40.386116	1.123222	61.295000
40.417134	1.149527	61.341000
40.448075	1.160083	61.387000
40.479712	1.157530	61.434000
40.510403	1.150234	61.480000
40.541398	1.136274	61.526000
40.571848	1.118095	61.572000
40.603223	1.107186	61.619000
40.633273	1.099866	61.665000
40.663961	1.084009	61.711000
40.776800	1.074351	61.757000
40.806712	1.047172	61.925000
40.838706	1.046816	61.971000
40.942110	1.056515	62.018000
40.973401	1.065598	62.176000
41.004761	1.073152	62.222000
41.035575	1.078498	62.269000
41.066805	1.089529	62.315000
41.098072	1.098447	62.362000
41.129605	1.105988	62.408000
41.160700	1.129693	62.455000
41.192176	1.156788	62.501000
41.222291	1.175302	62.548000
41.253267	1.190170	62.594000
41.282717	1.204171	62.640000
41.314196	1.220223	62.685000
41.344354	1.237195	62.731000
41.375003	1.254539	62.776000
41.405234	1.284787	62.822000
41.510205	1.313366	62.867000
41.539756	1.385522	63.025000
41.570762	1.399859	63.071000
41.676541	1.425278	63.118000
41.707351	1.426662	63.276000
41.739026	1.427547	63.322000
41.769599	1.425062	63.368000
41.801066	1.422577	63.414000
41.832000	1.428732	63.461000
41.862173	1.432058	63.506000
41.892135	1.432909	63.553000
41.923034	1.437192	63.600000
41.954113	1.440727	63.646000
41.985158	1.448099	63.692000
42.016564	1.453610	63.738000
42.047133	1.476906	63.785000
42.078877	1.497635	63.831000
42.109911	1.508884	63.878000
42.140971	1.495489	63.924000
42.243764	1.482694	63.971000
42.275159	1.487643	64.127000
42.306580	1.471687	64.174000
42.410610	1.485645	64.220000
42.442274	1.493790	64.376000
42.472666	1.494424	64.422000
42.503680	1.495092	64.468000
42.534302	1.508031	64.515000
42.564245	1.518087	64.561000
42.595094	1.530419	64.607000
42.626435	1.541108	64.654000
42.657703	1.545744	64.700000
42.688759	1.538648	64.747000
42.719435	1.533139	64.793000
42.750818	1.519939	64.840000
42.782301	1.499916	64.886000
42.812674	1.485592	64.932000
42.842839	1.478642	64.978000
42.873585	1.473789	65.025000
43.119467	1.478102	65.071000
43.149970	1.515230	65.439000
43.181476	1.502543	65.486000
43.211614	1.498864	65.532000
43.243059	1.499000	65.578000
43.274269	1.486947	65.624000
43.304980	1.468735	65.671000
43.336674	1.453192	65.718000
43.367688	1.434721	65.764000
43.397996	1.414281	65.810000
43.427796	1.397396	65.857000
43.458622	1.393468	65.903000
43.489974	1.394175	65.948000
43.520781	1.396960	65.995000
43.551726	1.405319	66.041000
43.583202	1.413647	66.088000
43.614101	1.411859	66.134000
43.717090	1.402199	66.180000
43.747320	1.370274	66.336000
43.778377	1.359796	66.382000
44.023468	1.265634	66.428000
44.054989	1.251592	66.796000
44.086603	1.235997	66.843000
44.117271	1.226548	66.889000
44.147655	1.215347	66.935000
44.179442	1.201743	66.982000
44.209592	1.192761	67.028000
44.240560	1.185315	67.074000
44.270310	1.186053	67.120000
44.301770	1.184908	67.167000
44.332896	1.187826	67.212000
44.443395	1.189982	67.260000
44.473810	1.177823	67.425000
44.503979	1.178718	67.471000
44.610222	1.188168	67.517000
44.641632	1.185708	67.676000
44.672412	1.186481	67.722000
44.703573	1.189376	67.768000
44.733557	1.188074	67.814000
44.765178	1.185127	67.860000
44.795547	1.186116	67.907000
44.825897	1.185378	67.953000
44.856108	1.181752	67.999000
44.888252	1.182272	68.045000
44.918659	1.180554	68.092000
44.950384	1.177772	68.138000
44.980584	1.174355	68.184000
45.012190	1.173376	68.230000
45.042770	1.180523	68.276000
45.073892	1.194440	68.323000
45.177646	1.216431	68.369000
45.207776	1.337443	68.524000
45.239762	1.383487	68.571000
45.345172	1.550963	68.616000
45.376816	1.601348	68.776000
45.408088	1.643487	68.822000
45.438272	1.680763	68.869000
45.469409	1.710954	68.915000
45.499836	1.731656	68.962000
45.530885	1.748029	69.008000
45.561004	1.757698	69.055000
45.593121	1.768176	69.101000
45.623943	1.771773	69.148000
45.655526	1.775789	69.194000
45.684965	1.778968	69.239000
45.716402	1.777689	69.285000
45.745695	1.771627	69.331000
45.775580	1.763965	69.375000
45.805565	1.754578	69.422000
45.911715	1.740656	69.468000
45.942795	1.682376	69.625000
45.973648	1.660364	69.671000
46.079280	1.600122	69.717000
46.109795	1.582532	69.876000
46.140137	1.569012	69.922000
46.170544	1.558229	69.968000
46.201923	1.550758	70.015000
46.233329	1.543685	70.061000
46.264167	1.537245	70.107000
46.295262	1.529736	70.154000
46.326345	1.526194	70.200000
46.357955	1.524369	70.247000
46.387901	1.518828	70.293000
46.418727	1.512952	70.339000
46.449354	1.511221	70.386000
46.480122	1.501991	70.432000
46.510787	1.488844	70.478000
46.542304	1.479425	70.525000
46.787737	1.473155	70.571000
46.819143	1.390390	70.940000
46.849815	1.408853	70.985000
46.880541	1.448379	71.031000
46.912144	1.495165	71.078000
46.943023	1.523314	71.124000
46.973039	1.531732	71.171000
47.002466	1.534023	71.217000
47.034164	1.529084	71.263000
47.065282	1.523035	71.309000
47.096324	1.516888	71.355000
47.127572	1.510888	71.402000
47.158533	1.506697	71.448000
47.189693	1.510491	71.494000
47.219866	1.515948	71.541000
47.250465	1.514575	71.587000
47.280634	1.511500	71.633000
47.384857	1.510950	71.679000
47.416078	1.556547	71.835000
47.447077	1.558612	71.882000
47.691799	1.774196	71.928000
47.722948	1.785406	72.295000
47.754938	1.798824	72.341000
47.785399	1.799385	72.388000
47.815257	1.786486	72.434000
47.846098	1.778502	72.481000
47.877585	1.782461	72.527000
47.908219	1.790384	72.574000
47.939122	1.801515	72.620000
47.970755	1.813015	72.666000
48.002145	1.814311	72.713000
48.111946	1.800923	72.759000
48.142922	1.738963	72.925000
48.173909	1.724127	72.972000
48.279803	1.665488	73.018000
48.310348	1.645767	73.175000
48.341835	1.623391	73.222000
48.372865	1.598816	73.269000
48.402381	1.585195	73.315000
48.433499	1.577290	73.362000
48.464444	1.566339	73.408000
48.495777	1.558963	73.454000
48.527048	1.565994	73.501000
48.557671	1.576081	73.548000
48.589357	1.582946	73.594000
48.619868	1.594552	73.640000
48.650718	1.606827	73.686000
48.681213	1.624735	73.732000
48.712128	1.649184	73.779000
48.742251	1.679627	73.825000
48.846938	1.706548	73.871000
48.878248	1.778936	74.027000
48.909304	1.787766	74.073000
49.011913	1.821010	74.120000
49.043054	1.835696	74.275000
49.074145	1.859257	74.322000
49.104837	1.881171	74.368000
49.135382	1.891754	74.415000
49.167092	1.895571	74.460000
49.198233	1.896390	74.507000
49.229558	1.889561	74.553000
49.260327	1.883761	74.600000
49.291383	1.890092	74.646000
49.321026	1.910988	74.692000
49.351176	1.928929	74.738000
49.381480	1.951557	74.784000
49.413377	1.981018	74.830000
49.444518	1.980883	74.877000
49.475706	1.968581	74.923000
49.580181	1.960599	74.969000
49.609175	1.919093	75.125000
49.640873	1.916531	75.171000
49.746075	1.909387	75.218000
49.776866	1.889459	75.375000
49.808150	1.863760	75.422000
49.839014	1.841625	75.469000
49.870470	1.823795	75.515000
49.901377	1.808256	75.561000
49.933006	1.796672	75.607000
49.962360	1.788128	75.654000
49.993916	1.780020	75.700000
50.023951	1.766611	75.747000
50.055050	1.755934	75.793000
50.085737	1.745692	75.840000
50.117789	1.735005	75.886000
50.148573	1.727977	75.932000
50.179864	1.726033	75.979000
50.210129	1.722530	76.025000
50.455304	1.711707	76.071000
50.486798	1.587780	76.439000
50.517363	1.571739	76.485000
50.546403	1.557383	76.531000
50.578086	1.539129	76.577000
50.608958	1.516407	76.623000
50.640264	1.497070	76.670000
50.670502	1.481903	76.716000
50.702473	1.466616	76.763000
50.733353	1.474110	76.809000
50.764820	1.512551	76.856000
50.794521	1.538098	76.902000
50.825693	1.544566	76.948000
50.855750	1.549337	76.994000
50.886446	1.551649	77.040000
50.917103	1.546287	77.086000
50.948901	1.537439	77.133000
51.053765	1.528534	77.179000
51.084260	1.479903	77.335000
51.114806	1.464214	77.381000
51.359558	1.432702	77.427000
51.389086	1.448088	77.795000
51.420776	1.462258	77.842000
51.451929	1.473537	77.888000
51.483347	1.485151	77.934000
51.514192	1.501385	77.980000
51.545333	1.523230	78.027000
51.576470	1.536941	78.073000
51.607857	1.545296	78.120000
51.638226	1.550357	78.166000
51.669106	1.555755	78.213000
51.779928	1.567047	78.259000
51.811461	1.613298	78.425000
51.842629	1.632123	78.472000
51.947058	1.626042	78.518000
51.976551	1.636971	78.676000
52.007869	1.652542	78.721000
52.038657	1.672564	78.768000
52.069709	1.695292	78.814000
52.100420	1.715399	78.860000
52.131653	1.737167	78.907000
52.162752	1.760724	78.953000
52.193793	1.785905	78.999000
52.224051	1.806688	79.046000
52.255180	1.829569	79.092000
52.285634	1.850829	79.138000
52.316026	1.866608	79.185000
52.346798	1.886310	79.230000
52.378431	1.907622	79.276000
52.409699	1.927045	79.323000
52.514359	1.950029	79.369000
52.543832	1.962664	79.525000
52.573687	1.946560	79.571000
52.679707	1.967515	79.617000
52.711021	1.974829	79.776000
52.742043	1.976519	79.822000
52.773172	1.972631	79.869000
52.804090	1.965423	79.915000
52.835543	1.960463	79.961000
52.866591	1.953974	80.008000
52.897026	1.940712	80.054000
52.926738	1.931326	80.100000
52.958048	1.924074	80.146000
52.989289	1.909364	80.193000
53.020088	1.892740	80.239000
53.051302	1.879352	80.286000
53.082354	1.871261	80.332000
53.113761	1.862927	80.379000
53.144894	1.861481	80.426000
53.248098	1.853051	80.472000
53.278363	1.888844	80.627000
53.309339	1.899293	80.674000
53.413673	1.890830	80.720000
53.445244	1.897213	80.876000
53.476673	1.907119	80.922000
53.507492	1.918303	80.969000
53.538264	1.920522	81.015000
53.569313	1.922583	81.062000
53.598690	1.928302	81.107000
53.629701	1.930378	81.154000
53.660684	1.931771	81.200000
53.691845	1.932753	81.246000
53.722348	1.933794	81.292000
53.753135	1.932126	81.338000
53.784415	1.936814	81.385000
53.815644	1.943732	81.431000
53.845502	1.949266	81.477000
53.875902	1.956795	81.523000
54.120793	1.965039	81.569000
54.152675	2.060125	81.938000
54.183793	2.059551	81.984000
54.214957	2.050311	82.030000
54.244915	2.040653	82.076000
54.276717	2.034474	82.123000
54.307324	2.022869	82.169000
54.338719	2.010699	82.215000
54.368711	2.001929	82.262000
54.399687	1.989332	82.308000
54.429552	1.973736	82.354000
54.461008	1.959641	82.400000
54.491731	1.943992	82.447000
54.523287	1.921678	82.493000
54.554289	1.898181	82.540000
54.584305	1.881869	82.585000
54.616376	1.872429	82.631000
54.718554	1.871344	82.678000
54.750164	1.842838	82.834000
54.780498	1.829691	82.880000
55.025781	1.871522	82.927000
55.057268	1.863142	83.294000
55.088205	1.845066	83.340000
55.118935	1.822194	83.386000
55.150418	1.807168	83.433000
55.180203	1.790547	83.478000
55.211459	1.776628	83.525000
55.241682	1.769183	83.571000
55.273050	1.760318	83.618000
55.302892	1.751656	83.664000
55.335290	1.749422	83.711000
55.447906	1.758903	83.757000
55.478033	1.806474	83.924000
55.508655	1.830386	83.972000
55.613688	1.875046	84.018000
55.645044	1.888916	84.175000
55.675682	1.910155	84.222000
55.706623	1.933010	84.268000
55.738137	1.948045	84.314000
55.769032	1.956537	84.360000
55.800181	1.956422	84.407000
55.830166	1.944043	84.454000
55.860827	1.924884	84.500000
55.891437	1.905341	84.546000
55.922813	1.885607	84.593000
55.953919	1.868039	84.639000
55.985022	1.859057	84.685000
56.015771	1.858527	84.732000
56.047273	1.859816	84.778000
56.077923	1.853215	84.824000
56.180800	1.843517	84.871000
56.212037	1.781473	85.026000
56.242856	1.770336	85.073000
56.348449	1.839495	85.119000
56.378380	1.856140	85.276000
56.409736	1.860838	85.322000
56.441596	1.862628	85.369000
56.472572	1.861361	85.415000
56.502038	1.854135	85.461000
56.532910	1.854373	85.507000
56.564036	1.880415	85.554000
56.595204	1.894409	85.601000
56.626633	1.891621	85.647000
56.657086	1.885998	85.694000
56.688996	1.890352	85.740000
56.719944	1.896330	85.786000
56.751097	1.891291	85.833000
56.781654	1.882516	85.879000
56.812695	1.878919	85.926000
56.915684	1.876047	85.972000
56.946295	1.883398	86.127000
56.976906	1.881941	86.173000
57.081543	1.876360	86.220000
57.113195	1.871839	86.376000
57.144167	1.866701	86.423000
57.174452	1.863658	86.469000
57.204263	1.867667	86.515000
57.235212	1.877027	86.560000
57.266461	1.886880	86.607000
57.297053	1.899534	86.653000
57.327898	1.924203	86.699000
57.359512	1.951393	86.746000
57.390587	1.977845	86.792000
57.421325	2.010723	86.838000
57.451413	2.047333	86.885000
57.482343	2.079368	86.931000
57.513307	2.104601	86.977000
57.544329	2.134614	87.024000
57.790112	2.165573	87.070000
57.821322	2.277413	87.439000
57.852463	2.281735	87.486000
57.883466	2.282413	87.532000
57.914476	2.278170	87.578000
57.945855	2.286486	87.625000
57.976543	2.300075	87.671000
58.005925	2.320358	87.716000
58.036436	2.339321	87.763000
58.067530	2.357277	87.809000
58.099309	2.380403	87.855000
58.130347	2.405981	87.902000
58.160911	2.430231	87.949000
58.192306	2.458333	87.995000
58.223435	2.500283	88.041000
58.253908	2.540081	88.087000
58.283651	2.577653	88.134000
58.387043	2.611586	88.180000
58.418799	2.661403	88.335000
58.450278	2.662456	88.382000
58.694589	2.649449	88.428000
58.725515	2.661081	88.795000
58.756494	2.676904	88.842000
58.787916	2.679448	88.888000
58.818846	2.662005	88.934000
58.849188	2.643055	88.981000
58.878773	2.620788	89.027000
58.910774	2.595545	89.073000
58.941858	2.565127	89.120000
58.972857	2.533756	89.166000
59.003713	2.503522	89.212000
59.113733	2.470136	89.259000
59.145573	2.361516	89.426000
59.176430	2.333411	89.472000
59.281666	2.266623	89.518000
59.312454	2.257857	89.674000
59.342565	2.248825	89.721000
59.373376	2.240829	89.766000
59.402858	2.231233	89.812000
59.433810	2.220952	89.858000
59.463910	2.210766	89.904000
59.495843	2.195150	89.950000
59.527011	2.186216	89.996000
59.558109	2.177164	90.043000
59.588305	2.168742	90.089000
59.620357	2.162451	90.136000
59.650430	2.159470	90.182000
59.680653	2.156310	90.228000
59.710507	2.150516	90.275000
59.742635	2.147033	90.321000
59.848621	2.144872	90.367000
59.879385	2.181156	90.526000
59.911026	2.197978	90.572000
60.015947	2.269333	90.619000
60.046216	2.286901	90.776000
60.076151	2.306031	90.822000
60.105314	2.330681	90.869000
60.135367	2.358245	90.915000
60.166063	2.391840	90.961000
60.197942	2.432366	91.008000
60.228879	2.469195	91.054000
60.260185	2.501576	91.101000
60.290239	2.539276	91.147000
60.321745	2.582776	91.193000
60.352410	2.631203	91.239000
60.383516	2.682069	91.286000
60.412959	2.723249	91.332000
60.445172	2.750218	91.379000
60.476056	2.770715	91.425000
60.580439	2.789131	91.472000
60.611577	2.852432	91.628000
60.641911	2.862754	91.674000
60.745972	2.859014	91.720000
60.775603	2.848544	91.876000
60.807151	2.832555	91.922000
60.838596	2.812821	91.968000
60.869721	2.790706	92.015000
60.901116	2.767922	92.062000
60.931869	2.762962	92.108000
60.962976	2.777464	92.155000
60.993721	2.791789	92.201000
61.025315	2.795891	92.247000
61.055062	2.799769	92.294000
61.086214	2.814883	92.340000
61.115984	2.834126	92.387000
61.148493	2.855514	92.433000
61.179107	2.874830	92.480000
61.210164	2.886844	92.525000
61.455585	2.887352	92.572000
61.486396	2.903806	92.940000
61.517844	2.922275	92.987000
61.548747	2.938390	93.033000
61.578931	2.965459	93.079000
61.609108	2.998088	93.125000
61.639946	3.029262	93.172000
61.671867	3.059961	93.218000
61.702558	3.087679	93.265000
61.734425	3.117589	93.311000
61.764936	3.150417	93.358000
61.795839	3.182155	93.404000
61.826396	3.213468	93.450000
61.858033	3.246941	93.496000
61.888874	3.269413	93.542000
61.918940	3.290769	93.589000
61.948521	3.311655	93.635000
62.053880	3.326285	93.681000
62.084856	3.370375	93.838000
62.116178	3.374440	93.884000
62.361003	3.389375	93.931000
62.392206	3.397302	94.297000
62.422509	3.421253	94.344000
62.453136	3.442143	94.390000
62.484123	3.450150	94.437000
62.514776	3.449044	94.483000
62.545191	3.442861	94.529000
62.576624	3.435948	94.575000
62.608438	3.442380	94.622000
62.638968	3.469941	94.669000
62.669867	3.499801	94.715000
62.778780	3.526704	94.761000
62.810155	3.641271	94.926000
62.841849	3.664637	94.972000
62.946821	3.706727	95.019000
62.977831	3.716678	95.176000
63.007851	3.722480	95.222000
63.037731	3.733781	95.269000
63.069699	3.748881	95.315000
63.100367	3.767456	95.361000
63.131616	3.784989	95.407000
63.162626	3.809730	95.454000
63.193729	3.839097	95.500000
63.225358	3.867728	95.547000
63.255811	3.885767	95.593000
63.286038	3.909501	95.639000
63.317075	3.941316	95.686000
63.346998	3.985165	95.732000
63.378089	4.028673	95.778000
63.409399	4.057053	95.824000
63.513894	4.071754	95.871000
63.545500	4.121123	96.027000
63.576346	4.162244	96.073000
63.679250	4.230660	96.120000
63.709930	4.228431	96.276000
63.740449	4.214712	96.322000
63.772039	4.207514	96.368000
63.803104	4.213075	96.414000
63.834879	4.212223	96.461000
63.865359	4.196198	96.507000
63.896511	4.180665	96.553000
63.925747	4.171026	96.599000
63.956754	4.158619	96.645000
63.986754	4.145284	96.691000
64.018532	4.133846	96.737000
64.049220	4.117686	96.784000
64.080734	4.101633	96.830000
64.111391	4.088486	96.876000
64.142609	4.076128	96.922000
64.247292	4.067689	96.968000
64.277818	4.039600	97.126000
64.308249	4.029586	97.172000
64.413158	3.998490	97.218000
64.444142	3.991766	97.376000
64.475321	3.987057	97.422000
64.506455	3.983292	97.468000
64.537673	3.978666	97.515000
64.567684	3.978614	97.561000
64.599133	3.978698	97.607000
64.629006	3.977889	97.654000
64.660308	3.975403	97.700000
64.690527	3.978416	97.746000
64.722007	3.980964	97.792000
64.752748	3.982024	97.839000
64.784012	3.984833	97.884000
64.815115	3.989416	97.931000
64.846371	3.993472	97.978000
64.876828	3.997619	98.024000
65.122530	4.005521	98.070000
65.151973	4.134523	98.438000
65.182799	4.156608	98.484000
65.214086	4.185196	98.530000
65.245058	4.216242	98.577000
65.275699	4.244237	98.623000
65.307924	4.278585	98.670000
65.338396	4.312907	98.716000
65.369384	4.347640	98.762000
65.399165	4.386353	98.808000
65.431105	4.420775	98.855000
65.460686	4.460115	98.901000
65.492342	4.500378	98.948000
65.522446	4.541835	98.994000
65.554225	4.584914	99.040000
65.585550	4.632171	99.087000
65.616561	4.676134	99.133000
65.720011	4.721998	99.179000
65.749784	4.886606	99.335000
65.780940	4.937480	99.381000
66.025428	5.306245	99.427000
66.056577	5.347955	99.794000
66.087195	5.386035	99.840000
66.117576	5.425656	99.885000
66.149155	5.460605	99.932000
66.180933	5.492277	99.978000
66.211076	5.527158	100.025000
66.240941	5.565932	100.071000
66.271414	5.603347	100.117000
66.303031	5.640389	100.163000
66.334072	5.682056	100.210000
66.447334	5.722631	100.256000
66.478775	5.856334	100.426000
66.509317	5.885454	100.472000
66.614119	5.987854	100.518000
66.644230	6.016780	100.676000
66.675518	6.046183	100.722000
66.705944	6.073515	100.768000
66.737369	6.101785	100.815000
66.769041	6.138905	100.861000
66.800105	6.175604	100.908000
66.830593	6.212023	100.954000
66.861780	6.259504	101.000000
66.892452	6.304896	101.047000
66.922479	6.352849	101.093000
66.952967	6.398906	101.139000
66.984515	6.451108	101.186000
67.015772	6.502983	101.232000
67.046398	6.548226	101.277000
67.077670	6.592554	101.324000
67.179983	6.644265	101.370000
67.210847	6.819741	101.525000
67.241988	6.868083	101.572000
67.347559	6.991110	101.618000
67.378408	7.022509	101.776000
67.409034	7.053219	101.822000
67.440390	7.087703	101.869000
67.471785	7.123145	101.915000
67.503041	7.157807	101.961000
67.532622	7.192655	102.008000
67.563226	7.233242	102.054000
67.594428	7.274217	102.100000
67.624947	7.309444	102.146000
67.655596	7.350351	102.193000
67.687221	7.390180	102.238000
67.718600	7.426918	102.284000
67.749165	7.468305	102.331000
67.779492	7.511448	102.378000
67.810610	7.553409	102.424000
67.913660	7.593841	102.470000
67.945285	7.754022	102.626000
67.975820	7.802571	102.672000
68.081874	7.969146	102.718000
68.112662	8.020019	102.876000
68.142981	8.065826	102.922000
68.174683	8.109069	102.968000
68.204479	8.150525	103.015000
68.235574	8.197301	103.061000
68.266024	8.234291	103.108000
68.297534	8.278401	103.154000
68.328329	8.331555	103.201000
68.359101	8.381216	103.247000
68.390841	8.424098	103.293000
68.422175	8.460638	103.340000
68.453062	8.494685	103.387000
68.483404	8.519237	103.433000
68.513715	8.537417	103.479000
68.544557	8.553554	103.525000
68.789682	8.569787	103.572000
68.859893	8.717763	103.939000
68.891810	8.825685	104.043000
68.922152	8.924512	104.090000
68.952694	9.015864	104.136000
68.982429	9.101480	104.182000
69.013639	9.174835	104.229000
69.044573	9.251502	104.275000
69.074753	9.327466	104.321000
69.106279	9.401623	104.367000
69.138119	9.474695	104.414000
69.169252	9.542150	104.460000
69.199832	9.608259	104.507000
69.230697	9.675583	104.553000
69.260539	9.744717	104.599000
69.382007	9.813189	104.645000
69.413410	10.078737	104.826000
69.442537	10.151782	104.872000
69.690121	10.678516	104.919000
69.720994	10.736646	105.288000
69.751382	10.801708	105.335000
69.782046	10.863615	105.381000
69.812580	10.927092	105.427000
69.844067	11.004525	105.474000
69.875231	11.082878	105.520000
69.905996	11.148786	105.566000
69.937337	11.203257	105.613000
69.968124	11.265758	105.658000
69.998689	11.324912	105.705000
70.114986	11.380582	105.751000
70.144398	11.667788	105.926000
70.176039	11.757762	105.972000
70.281686	12.094173	106.018000
70.312866	12.191657	106.175000
70.344076	12.279309	106.222000
70.374863	12.370312	106.269000
70.404867	12.465137	106.314000
70.435924	12.551605	106.360000
70.465736	12.629245	106.406000
70.496247	12.716603	106.452000
70.527265	12.803458	106.499000
70.558544	12.882814	106.545000
70.589647	12.971266	106.591000
70.619543	13.064008	106.637000
70.651222	13.152589	106.683000
70.682555	13.227452	106.730000
70.712905	13.310382	106.775000
70.741779	13.409879	106.822000
70.847888	13.505284	106.868000
70.879359	13.819038	107.025000
70.909832	13.903901	107.072000
71.015548	14.199345	107.118000
71.046920	14.282000	107.276000
71.077423	14.370075	107.321000
71.107297	14.452062	107.368000
71.137884	14.526280	107.414000
71.168826	14.613697	107.461000
71.199721	14.694120	107.507000
71.230024	14.774234	107.552000
71.261534	14.865018	107.599000
71.293175	14.965754	107.646000
71.323893	15.071210	107.692000
71.354719	15.169608	107.738000
71.384754	15.277781	107.784000
71.415910	15.381554	107.830000
71.446091	15.474600	107.876000
71.477424	15.568699	107.923000
71.626391	15.665725	107.969000
71.657678	16.136708	108.193000
71.761620	16.489576	108.239000
71.792061	16.590905	108.394000
71.822834	16.709117	108.440000
71.853360	16.833301	108.487000
71.884294	16.954344	108.533000
71.915381	17.080038	108.580000
71.946391	17.211148	108.626000
71.977594	17.344489	108.672000
72.008489	17.467662	108.718000
72.038685	17.593449	108.764000
72.070556	17.719999	108.811000
72.101428	17.848434	108.857000
72.131501	17.979925	108.904000
72.162012	18.116513	108.950000
72.192677	18.241151	108.996000
72.224071	18.357241	109.042000
72.469397	18.478423	109.089000
72.500061	19.419540	109.456000
72.530941	19.550187	109.503000
72.562197	19.673460	109.549000
72.593384	19.810425	109.594000
72.623888	19.952175	109.642000
72.654184	20.079124	109.688000
72.684902	20.201597	109.734000
72.715736	20.329164	109.780000
72.746838	20.445253	109.826000
72.777718	20.558551	109.873000
72.809290	20.681488	109.919000
72.840308	20.799806	109.966000
72.871018	20.918916	110.012000
72.901998	21.054327	110.059000
72.933278	21.208838	110.105000
73.048921	21.352244	110.151000
73.079371	21.803529	110.326000
73.110635	21.954944	110.372000
73.356536	23.080738	110.419000
73.388123	23.208914	110.789000
73.419686	23.330939	110.836000
73.450889	23.464184	110.882000
73.480885	23.603847	110.929000
73.512748	23.742665	110.974000
73.543820	23.879032	111.021000
73.575361	24.026763	111.068000
73.605442	24.171830	111.114000
73.636521	24.304546	111.160000
73.666487	24.441982	111.206000
73.782023	24.590652	111.252000
73.813433	25.212282	111.425000
73.843967	25.378632	111.472000
73.949461	25.933364	111.519000
73.981078	26.085768	111.676000
74.011758	26.240797	111.723000
74.042269	26.387736	111.769000
74.071943	26.525614	111.815000
74.103414	26.663943	111.861000
74.134371	26.804872	111.908000
74.165596	26.937630	111.955000
74.196315	27.059503	112.001000
74.228070	27.180704	112.047000
74.258781	27.312888	112.094000
74.290522	27.441268	112.140000
74.321240	27.569881	112.187000
74.351513	27.720296	112.233000
74.381555	27.878044	112.279000
74.412450	28.029767	112.326000
74.517099	28.182813	112.371000
74.547564	28.744205	112.527000
74.579174	28.927325	112.574000
74.683031	29.528231	112.620000
74.713365	29.710314	112.776000
74.744137	29.885288	112.822000
74.774310	30.082500	112.869000
74.806381	30.290931	112.915000
74.837338	30.488870	112.962000
74.868617	30.675984	113.008000
74.899228	30.878243	113.054000
74.931276	31.092453	113.101000
74.961487	31.302996	113.147000
74.992759	31.503625	113.194000
75.021864	31.708763	113.239000
75.052997	31.911967	113.285000
75.084392	32.119746	113.332000
75.116117	32.337014	113.379000
75.146620	32.541653	113.425000
75.251269	32.736945	113.471000
75.282848	33.346666	113.627000
75.313597	33.521265	113.674000
75.416832	34.200834	113.720000
75.447796	34.414771	113.876000
75.478661	34.632795	113.923000
75.509986	34.854944	113.969000
75.540981	35.073437	114.015000
75.572368	35.296841	114.062000
75.602864	35.520958	114.108000
75.634258	35.747182	114.154000
75.664270	35.957933	114.200000
75.694911	36.160984	114.247000
75.725153	36.372798	114.293000
75.757347	36.577705	114.340000
75.787658	36.782572	114.386000
75.819022	36.972958	114.432000
75.849441	37.144808	114.478000
75.880851	37.321056	114.525000
76.126775	37.509124	114.571000
76.158162	38.845082	114.940000
76.188481	38.990562	114.985000
76.218585	39.143635	115.032000
76.248919	39.285222	115.079000
76.280498	39.428159	115.125000
76.311801	39.587931	115.171000
76.343172	39.758344	115.218000
76.373791	39.926833	115.264000
76.405070	40.102640	115.311000
76.435819	40.296476	115.357000
76.467660	40.483449	115.404000
76.497587	40.667625	115.449000
76.528105	40.870663	115.496000
76.557579	41.071801	115.542000
76.589273	41.250670	115.589000
76.620691	41.425806	115.634000
76.725240	41.612984	115.681000
76.756519	42.296039	115.837000
76.787591	42.520997	115.883000
77.030527	44.062745	115.930000
77.060707	44.242807	116.296000
77.091987	44.445095	116.342000
77.122682	44.661965	116.389000
77.153062	44.868870	116.435000
77.184856	45.102073	116.481000
77.216343	45.360544	116.527000
77.246877	45.618373	116.574000
77.277396	45.873754	116.620000
77.307638	46.146543	116.665000
77.338157	46.427501	116.711000
77.451057	46.691560	116.758000
77.481784	47.648763	116.926000
77.512379	47.889291	116.972000
77.618503	48.758516	117.019000
77.647347	49.016300	117.176000
77.678964	49.292860	117.222000
