Sample	2mm tape 2
date	07/01/2025
	
Temperature (K)	77.00
Angle (deg.)	0.000000
field / T	0.040000
	
		
Approx. trace time (s)	60.0	
		
Current / A	V1  -sample/ uV	time/s
3.572283	-1.704341	0.000000
3.480348	-1.695548	0.046000
3.398415	-1.687500	0.092000
3.357005	-1.680190	0.137000
3.205816	-1.708615	0.183000
3.162987	-1.735886	0.349000
3.120765	-1.764521	0.394000
3.077693	-1.797531	0.441000
3.035035	-1.825707	0.487000
2.952606	-1.848802	0.533000
2.952606	-1.927242	0.707000
2.967658	-1.952510	0.754000
3.009315	-1.971068	0.800000
3.050997	-1.988810	0.846000
3.093186	-1.999643	0.891000
3.136136	-2.008276	0.938000
3.179182	-2.018219	0.984000
3.221776	-2.029571	1.031000
3.264987	-2.042667	1.077000
3.307622	-2.054081	1.124000
3.348182	-2.069314	1.169000
3.388875	-2.083701	1.215000
3.432236	-2.097370	1.261000
3.574522	-2.132311	1.307000
3.617808	-2.135080	1.462000
3.660502	-2.138118	1.509000
3.703650	-2.143112	1.555000
3.744785	-2.152622	1.602000
3.891561	-2.165864	1.648000
3.932719	-2.200837	1.808000
3.974992	-2.209479	1.853000
4.018459	-2.222373	1.900000
4.061847	-2.240316	1.947000
4.104680	-2.254313	1.994000
4.146897	-2.261185	2.040000
4.189336	-2.269816	2.086000
4.231686	-2.276676	2.132000
4.271787	-2.281596	2.178000
4.315422	-2.346157	2.225000
4.357486	-2.233062	2.271000
4.400592	-2.269520	2.317000
4.443060	-2.245056	2.364000
5.094444	-2.540665	2.410000
5.135612	-2.400194	3.120000
5.178551	-2.369579	3.166000
5.221215	-2.350588	3.212000
5.263886	-2.341140	3.259000
5.306990	-2.335117	3.305000
5.349901	-2.330749	3.351000
5.392686	-2.325753	3.398000
5.434765	-2.319975	3.444000
5.579514	-2.287694	3.490000
5.620744	-2.277325	3.648000
5.663262	-2.266868	3.694000
5.705407	-2.256826	3.741000
5.747985	-2.241291	3.787000
5.908683	-2.226224	3.833000
5.950822	-2.143164	4.008000
5.993835	-2.120621	4.054000
6.036901	-2.102096	4.100000
6.078461	-2.084252	4.146000
6.119043	-2.067611	4.193000
6.161947	-2.052655	4.238000
6.204152	-2.041694	4.285000
6.247607	-2.030724	4.331000
6.289752	-2.022154	4.378000
6.332227	-2.017860	4.424000
6.376444	-2.011534	4.470000
6.418239	-2.007218	4.516000
6.459591	-2.004636	4.562000
6.601813	-1.992284	4.609000
6.643152	-1.987827	4.764000
6.685634	-1.980404	4.809000
6.729341	-1.973878	4.856000
6.772123	-1.970103	4.903000
6.917826	-1.965490	4.949000
6.960590	-1.959541	5.107000
7.001388	-1.960697	5.153000
7.042146	-1.964259	5.199000
7.084657	-1.967219	5.245000
7.127630	-1.971058	5.291000
7.170989	-1.975956	5.337000
7.213086	-1.981046	5.384000
7.254957	-1.983712	5.430000
7.298482	-1.988655	5.476000
7.340749	-1.993532	5.522000
7.380679	-1.992905	5.569000
7.424600	-1.991318	5.614000
7.466780	-1.989967	5.662000
7.608664	-1.984463	5.707000
7.653208	-1.987480	5.863000
7.696120	-1.976773	5.909000
7.736984	-1.974057	5.956000
7.780590	-1.972986	6.002000
7.925339	-1.969699	6.049000
7.967323	-1.962511	6.208000
8.010651	-1.959668	6.254000
8.053483	-1.955755	6.301000
8.096408	-1.951269	6.347000
8.137967	-1.943952	6.392000
8.180680	-1.937145	6.439000
8.224485	-1.929320	6.485000
8.266902	-1.922638	6.532000
8.307811	-1.910964	6.579000
8.350162	-1.897486	6.624000
8.393172	-1.886744	6.671000
8.434727	-1.879428	6.718000
8.477332	-1.871348	6.764000
8.621036	-1.857858	6.810000
8.662709	-1.857592	6.965000
8.705661	-1.858918	7.011000
8.748328	-1.860848	7.057000
8.788322	-1.864886	7.104000
8.934111	-1.868517	7.150000
8.977617	-1.883690	7.308000
9.019364	-1.887763	7.354000
9.061464	-1.891717	7.400000
9.104051	-1.899745	7.446000
9.147289	-1.905268	7.492000
9.188199	-1.913839	7.538000
9.230028	-1.924972	7.585000
9.272963	-1.936446	7.631000
9.315384	-1.954176	7.678000
9.357392	-1.974324	7.724000
9.399557	-1.998270	7.770000
9.442682	-2.021171	7.816000
9.485436	-2.039038	7.862000
10.136653	-2.049026	7.908000
10.180256	-1.966455	8.620000
10.222218	-1.969784	8.666000
10.263986	-1.967822	8.712000
10.307794	-1.970441	8.758000
10.349795	-1.973792	8.804000
10.390114	-1.976581	8.850000
10.432893	-1.983915	8.896000
10.476007	-1.993605	8.943000
10.620330	-2.024619	8.989000
10.663523	-2.035759	9.148000
10.706380	-2.045058	9.194000
10.748818	-2.050812	9.240000
10.791813	-2.052762	9.287000
10.951990	-2.056433	9.333000
10.995432	-2.088874	9.508000
11.036761	-2.095275	9.555000
11.077610	-2.104732	9.601000
11.120007	-2.115437	9.647000
11.163325	-2.125192	9.692000
11.205146	-2.134024	9.739000
11.247701	-2.141047	9.785000
11.291506	-2.147152	9.831000
11.333887	-2.154051	9.877000
11.375529	-2.162260	9.924000
11.418075	-2.167357	9.970000
11.460185	-2.171834	10.017000
11.502068	-2.168849	10.063000
11.645161	-2.166096	10.109000
11.687949	-2.171686	10.263000
11.729515	-2.178315	10.310000
11.772249	-2.180865	10.356000
11.814353	-2.174623	10.402000
11.959855	-2.163082	10.449000
12.001392	-2.188781	10.608000
12.045017	-2.194009	10.654000
12.088158	-2.201802	10.701000
12.130249	-2.208737	10.747000
12.173485	-2.195694	10.794000
12.216694	-2.180308	10.840000
12.259253	-2.167063	10.887000
12.301421	-2.157020	10.933000
12.345173	-2.155688	10.980000
12.387553	-2.151459	11.026000
12.428660	-2.139558	11.073000
12.470173	-2.119730	11.119000
12.513375	-2.095381	11.165000
12.655733	-2.026471	11.211000
12.698201	-2.014762	11.366000
12.741371	-2.004278	11.413000
12.783429	-1.994790	11.458000
12.824291	-1.985785	11.505000
12.969026	-1.976889	11.550000
13.011269	-1.947441	11.707000
13.053467	-1.943061	11.755000
13.096600	-1.936137	11.801000
13.139924	-1.923551	11.847000
13.182036	-1.903583	11.894000
13.223056	-1.884687	11.939000
13.265379	-1.869406	11.985000
13.307508	-1.855461	12.031000
13.349249	-1.846394	12.078000
13.391968	-1.843520	12.124000
13.435647	-1.840244	12.170000
13.478571	-1.837168	12.217000
13.520885	-1.830212	12.263000
13.661529	-1.792354	12.309000
13.702172	-1.777212	12.463000
13.744301	-1.763480	12.509000
13.787514	-1.751827	12.555000
13.830666	-1.745292	12.601000
13.977304	-1.744718	12.647000
14.019893	-1.738911	12.808000
14.063786	-1.735980	12.855000
14.106151	-1.732132	12.901000
14.146231	-1.727191	12.947000
14.189064	-1.714137	12.993000
14.231835	-1.702076	13.040000
14.274005	-1.704435	13.086000
14.316150	-1.713532	13.132000
14.359367	-1.720705	13.178000
14.401927	-1.721500	13.223000
14.444167	-1.712210	13.270000
14.486563	-1.683289	13.316000
14.529496	-1.647862	13.363000
15.180792	-1.557256	13.409000
15.225031	-1.573176	14.120000
15.267273	-1.571782	14.167000
15.308965	-1.565380	14.213000
15.351682	-1.551902	14.259000
15.394540	-1.539394	14.306000
15.435753	-1.524496	14.352000
15.478145	-1.506988	14.399000
15.521647	-1.490967	14.445000
15.666038	-1.436377	14.490000
15.707798	-1.405697	14.648000
15.750676	-1.371498	14.695000
15.794176	-1.333898	14.741000
15.835756	-1.305825	14.787000
15.994206	-1.280859	14.833000
16.037465	-1.139297	15.008000
16.080055	-1.102749	15.054000
16.121485	-1.075867	15.101000
16.164601	-1.051289	15.147000
16.208623	-1.025615	15.193000
16.250627	-0.999729	15.239000
16.292075	-0.969019	15.285000
16.335045	-0.934864	15.331000
16.376505	-0.898093	15.378000
16.417744	-0.861668	15.423000
16.460110	-0.826591	15.470000
16.503307	-0.794295	15.516000
16.546486	-0.760021	15.562000
16.687258	-0.667663	15.609000
16.729450	-0.667460	15.763000
16.771077	-0.665934	15.809000
16.813086	-0.661162	15.855000
16.855991	-0.658818	15.901000
17.003325	-0.656592	15.947000
17.045605	-0.636900	16.108000
17.088652	-0.643379	16.155000
17.132103	-0.654779	16.201000
17.174562	-0.663653	16.247000
17.216233	-0.689092	16.293000
17.258698	-0.719366	16.339000
17.300398	-0.745230	16.386000
17.341917	-0.764761	16.431000
17.384699	-0.780386	16.478000
17.428285	-0.795756	16.525000
17.471011	-0.812226	16.571000
17.514006	-0.823871	16.618000
17.556055	-0.833254	16.664000
17.698879	-0.852391	16.710000
17.740374	-0.850064	16.865000
17.782224	-0.847366	16.911000
17.825587	-0.841031	16.958000
17.868038	-0.841590	17.005000
18.012441	-0.845166	17.051000
18.055315	-0.891397	17.208000
18.098129	-0.914113	17.254000
18.139695	-0.928206	17.300000
18.181564	-0.929012	17.347000
18.223400	-0.920125	17.392000
18.264645	-0.904157	17.437000
18.307565	-0.891189	17.484000
18.350511	-0.880763	17.530000
18.393103	-0.873622	17.577000
18.435982	-0.872165	17.622000
18.477075	-0.883366	17.669000
18.519864	-0.894066	17.715000
18.562696	-0.911949	17.762000
18.703881	-0.983399	17.808000
18.747306	-0.990261	17.963000
18.790437	-0.977579	18.009000
18.832218	-0.953210	18.055000
18.874346	-0.928376	18.101000
19.022606	-0.912841	18.146000
19.063175	-0.897418	18.308000
19.105866	-0.892466	18.354000
19.148217	-0.885083	18.401000
19.190590	-0.874493	18.447000
19.233325	-0.863703	18.494000
19.276214	-0.854603	18.539000
19.319203	-0.850086	18.586000
19.361958	-0.850797	18.632000
19.404042	-0.857333	18.678000
19.446818	-0.852297	18.725000
19.490189	-0.835773	18.771000
19.531072	-0.828887	18.818000
19.572705	-0.840438	18.865000
20.224769	-0.914176	18.911000
20.266546	-0.870090	19.620000
20.308805	-0.871487	19.666000
20.350964	-0.883144	19.712000
20.393237	-0.903817	19.759000
20.435669	-0.922087	19.805000
20.479265	-0.928907	19.851000
20.521675	-0.917856	19.897000
20.564102	-0.901951	19.944000
20.709876	-0.875636	19.990000
20.751430	-0.873496	20.148000
20.792173	-0.875983	20.195000
20.835176	-0.883314	20.241000
20.877289	-0.894751	20.287000
21.037641	-0.904209	20.332000
21.080485	-0.913360	20.508000
21.124022	-0.906298	20.554000
21.166632	-0.891242	20.601000
21.208774	-0.869287	20.647000
21.251729	-0.856467	20.694000
21.294203	-0.867530	20.740000
21.337057	-0.886550	20.787000
21.377622	-0.895473	20.833000
21.420048	-0.889684	20.879000
21.463648	-0.875402	20.926000
21.506176	-0.864516	20.971000
21.548698	-0.853355	21.018000
21.591076	-0.845294	21.065000
21.733869	-0.812469	21.111000
21.774636	-0.799825	21.266000
21.817534	-0.788265	21.313000
21.860815	-0.785525	21.359000
21.902573	-0.785451	21.405000
22.047543	-0.781623	21.451000
22.090061	-0.817640	21.608000
22.132137	-0.828663	21.654000
22.174335	-0.838945	21.701000
22.217278	-0.848423	21.747000
22.259431	-0.859246	21.794000
22.300714	-0.868122	21.840000
22.343242	-0.875992	21.886000
22.386573	-0.881958	21.933000
22.430307	-0.896422	21.979000
22.471957	-0.913933	22.025000
22.514455	-0.921037	22.071000
22.557196	-0.911578	22.117000
22.598540	-0.885682	22.163000
22.740033	-0.863278	22.210000
22.782728	-0.870928	22.364000
22.824843	-0.875604	22.410000
22.867500	-0.877815	22.457000
22.910975	-0.877072	22.503000
23.055754	-0.867509	22.549000
23.097817	-0.773645	22.708000
23.140111	-0.739794	22.755000
23.182886	-0.707550	22.801000
23.224295	-0.678257	22.847000
23.266955	-0.645247	22.893000
23.310904	-0.612659	22.940000
23.353688	-0.581856	22.986000
23.395401	-0.564061	23.032000
23.438519	-0.573585	23.079000
23.481978	-0.599787	23.125000
23.523506	-0.626837	23.172000
23.564595	-0.646519	23.218000
23.607561	-0.661491	23.264000
23.749468	-0.668298	23.311000
23.792463	-0.668521	23.465000
23.835694	-0.670558	23.511000
23.877308	-0.670992	23.557000
23.918996	-0.668724	23.603000
24.063676	-0.668968	23.650000
24.106121	-0.605396	23.808000
24.147971	-0.557824	23.854000
24.190453	-0.522194	23.901000
24.233914	-0.502388	23.946000
24.276108	-0.493108	23.992000
24.317842	-0.488717	24.038000
24.360474	-0.483480	24.084000
24.401946	-0.474604	24.131000
24.443340	-0.468486	24.177000
24.485993	-0.467227	24.224000
24.529746	-0.471435	24.270000
24.571925	-0.480488	24.316000
24.614109	-0.490744	24.362000
25.267210	-0.585047	24.408000
25.308365	-0.701329	25.121000
25.351365	-0.714542	25.167000
25.394464	-0.731555	25.213000
25.437299	-0.753228	25.259000
25.479827	-0.778119	25.306000
25.522560	-0.803055	25.352000
25.565340	-0.822401	25.397000
25.607230	-0.842069	25.445000
25.751016	-0.885682	25.491000
25.793193	-0.892000	25.649000
25.835650	-0.895892	25.695000
25.878337	-0.895680	25.741000
25.920688	-0.894877	25.788000
26.081839	-0.898315	25.834000
26.124853	-0.941428	26.008000
26.166730	-0.957259	26.055000
26.209064	-0.973994	26.101000
26.251150	-0.989497	26.147000
26.292544	-1.002316	26.194000
26.334773	-1.013156	26.239000
26.378169	-1.019053	26.286000
26.421142	-1.017841	26.332000
26.462610	-1.009348	26.378000
26.504863	-1.000038	26.424000
26.547989	-0.987916	26.469000
26.589669	-0.974111	26.516000
26.630659	-0.963633	26.562000
26.773707	-0.947983	26.609000
26.815632	-0.949309	26.763000
26.857837	-0.946965	26.809000
26.901289	-0.945915	26.855000
26.944288	-0.943920	26.901000
27.090137	-0.938205	26.947000
27.132573	-0.894677	27.108000
27.175875	-0.879918	27.155000
27.216459	-0.864272	27.201000
27.258812	-0.851928	27.247000
27.302852	-0.841244	27.294000
27.345672	-0.829142	27.340000
27.387258	-0.820975	27.386000
27.430084	-0.814892	27.433000
27.473499	-0.812353	27.478000
27.514535	-0.812459	27.525000
27.555201	-0.813771	27.571000
27.598567	-0.817092	27.617000
27.641448	-0.821100	27.663000
27.782893	-0.840746	27.710000
27.826210	-0.842354	27.864000
27.869240	-0.841601	27.911000
27.909645	-0.839401	27.956000
27.950379	-0.833701	28.002000
28.098276	-0.826507	28.048000
28.139924	-0.783272	28.208000
28.182557	-0.772641	28.255000
28.225879	-0.763799	28.301000
28.268478	-0.755842	28.347000
28.310648	-0.746416	28.394000
28.352888	-0.735014	28.439000
28.395212	-0.721535	28.485000
28.436240	-0.703594	28.531000
28.477965	-0.686723	28.577000
28.521859	-0.669211	28.624000
28.564575	-0.653243	28.670000
28.606331	-0.636138	28.717000
28.649060	-0.616244	28.763000
28.792489	-0.550761	28.809000
28.833054	-0.534676	28.964000
28.874435	-0.520467	29.010000
28.917501	-0.509936	29.056000
28.960371	-0.500848	29.102000
29.106239	-0.494921	29.148000
29.149543	-0.507953	29.308000
29.192102	-0.513722	29.355000
29.234640	-0.516383	29.401000
29.277325	-0.509873	29.447000
29.320687	-0.509490	29.493000
29.361843	-0.524876	29.540000
29.403207	-0.549362	29.586000
29.446597	-0.566774	29.633000
29.489362	-0.578356	29.679000
29.531298	-0.585385	29.725000
29.574373	-0.591026	29.772000
29.617076	-0.598311	29.818000
29.659879	-0.609180	29.864000
30.307242	-0.658299	29.910000
30.350051	-0.572853	30.621000
30.392550	-0.557210	30.667000
30.435195	-0.544929	30.714000
30.478931	-0.542226	30.760000
30.521446	-0.538123	30.807000
30.562519	-0.533648	30.853000
30.604421	-0.529925	30.900000
30.647327	-0.528495	30.946000
30.790972	-0.520105	30.992000
30.833517	-0.515505	31.148000
30.876890	-0.521834	31.195000
30.919670	-0.533468	31.241000
30.961133	-0.549289	31.287000
31.121658	-0.571025	31.333000
31.164086	-0.676347	31.508000
31.204657	-0.693416	31.555000
31.247259	-0.706184	31.601000
31.290928	-0.715801	31.647000
31.333929	-0.724982	31.694000
31.375905	-0.726114	31.740000
31.418382	-0.723216	31.786000
31.462379	-0.715231	31.833000
31.504809	-0.692709	31.879000
31.546985	-0.644757	31.926000
31.587863	-0.597750	31.972000
31.630773	-0.568248	32.018000
31.672681	-0.548503	32.063000
31.815422	-0.512714	32.110000
31.858784	-0.520774	32.265000
31.900566	-0.534517	32.311000
31.941135	-0.548959	32.357000
31.984247	-0.564431	32.404000
32.128266	-0.577570	32.450000
32.170454	-0.634674	32.608000
32.213919	-0.655870	32.654000
32.256716	-0.677259	32.700000
32.298986	-0.693873	32.747000
32.341848	-0.711263	32.793000
32.384930	-0.731203	32.839000
32.426428	-0.747875	32.885000
32.467600	-0.763468	32.931000
32.510028	-0.773824	32.978000
32.553593	-0.771996	33.025000
32.596178	-0.752721	33.072000
32.638334	-0.733774	33.117000
32.680973	-0.722213	33.163000
32.822890	-0.705583	33.210000
32.864143	-0.693490	33.364000
32.906386	-0.680929	33.410000
32.949464	-0.674014	33.457000
32.991542	-0.672308	33.503000
33.138127	-0.675255	33.550000
33.181116	-0.692529	33.708000
33.223444	-0.695121	33.755000
33.265861	-0.701191	33.801000
33.309026	-0.697098	33.847000
33.350133	-0.697669	33.894000
33.391366	-0.707676	33.939000
33.433545	-0.714573	33.986000
33.477198	-0.709421	34.032000
33.519968	-0.687674	34.079000
33.562035	-0.658860	34.125000
33.604678	-0.635713	34.171000
33.648101	-0.624408	34.217000
33.689945	-0.624080	34.263000
33.830545	-0.619213	34.309000
33.873484	-0.605735	34.464000
33.915428	-0.603287	34.510000
33.957994	-0.605236	34.557000
34.001659	-0.608683	34.602000
34.147518	-0.613942	34.649000
34.189846	-0.634960	34.809000
34.233707	-0.637156	34.855000
34.274652	-0.635946	34.901000
34.315820	-0.631566	34.948000
34.358210	-0.624813	34.994000
34.401837	-0.614684	35.040000
34.444660	-0.606763	35.086000
34.486320	-0.601281	35.133000
34.529132	-0.597156	35.179000
34.572867	-0.594973	35.225000
34.615471	-0.599510	35.271000
34.656632	-0.609267	35.318000
34.698710	-0.620571	35.364000
35.350256	-0.596192	35.411000
35.393410	-0.416159	36.121000
35.436768	-0.396367	36.167000
35.477935	-0.386141	36.214000
35.518961	-0.383302	36.259000
35.562027	-0.391130	36.306000
35.604582	-0.399816	36.352000
35.646991	-0.405214	36.398000
35.689699	-0.401691	36.445000
35.835543	-0.335913	36.491000
35.877137	-0.317568	36.648000
35.920337	-0.300822	36.695000
35.962812	-0.286395	36.742000
36.003822	-0.282331	36.788000
36.162508	-0.289366	36.834000
36.205947	-0.298452	37.008000
36.248252	-0.308270	37.054000
36.290545	-0.314056	37.100000
36.332916	-0.317780	37.146000
36.375701	-0.311866	37.192000
36.418536	-0.310990	37.239000
36.459946	-0.313561	37.285000
36.501760	-0.314788	37.332000
36.544772	-0.314353	37.378000
36.587453	-0.298802	37.424000
36.629447	-0.279570	37.471000
36.672263	-0.263501	37.516000
36.715487	-0.256085	37.563000
36.857339	-0.187807	37.609000
36.899221	-0.172833	37.764000
36.941757	-0.165676	37.811000
36.983981	-0.163363	37.857000
37.026728	-0.165517	37.904000
37.172625	-0.165432	37.950000
37.216125	-0.147999	38.108000
37.257916	-0.140502	38.154000
37.300278	-0.122505	38.201000
37.343997	-0.107554	38.248000
37.384873	-0.098594	38.294000
37.426498	-0.093152	38.340000
37.469361	-0.085294	38.387000
37.512196	-0.069644	38.433000
37.554689	-0.057311	38.479000
37.597609	-0.049411	38.526000
37.640748	-0.032223	38.572000
37.684086	-0.011349	38.619000
37.725750	0.001440	38.665000
37.867874	0.027041	38.711000
37.909634	0.027834	38.867000
37.951789	0.039140	38.913000
37.995508	0.050110	38.960000
38.038451	0.060322	39.006000
38.181479	0.067871	39.052000
38.224072	0.050716	39.209000
38.267602	0.041058	39.255000
38.308156	0.045371	39.301000
38.349404	0.062469	39.347000
38.393281	0.080557	39.393000
38.436231	0.086163	39.440000
38.477833	0.085728	39.486000
38.520457	0.093791	39.532000
38.564238	0.116186	39.579000
38.606581	0.120077	39.625000
38.648283	0.118175	39.671000
38.691199	0.123422	39.718000
38.733988	0.134741	39.765000
38.874861	0.200697	39.811000
38.918349	0.212882	39.965000
38.960808	0.246349	40.012000
39.002252	0.265074	40.057000
39.045003	0.261893	40.104000
39.190992	0.264449	40.150000
39.231281	0.282952	40.309000
39.273159	0.284682	40.354000
39.316413	0.282529	40.401000
39.359233	0.276983	40.446000
39.401027	0.270207	40.493000
39.443221	0.263611	40.538000
39.486406	0.257842	40.585000
39.528596	0.256718	40.631000
39.570209	0.256580	40.678000
39.612841	0.253017	40.724000
39.655104	0.244735	40.770000
39.697179	0.226995	40.817000
39.740187	0.208280	40.863000
40.393269	0.231131	40.910000
40.434560	0.172591	41.621000
40.477514	0.168633	41.667000
40.520257	0.161673	41.714000
40.562105	0.157517	41.759000
40.605075	0.147232	41.806000
40.647995	0.133694	41.852000
40.691387	0.118429	41.899000
40.732928	0.102878	41.945000
40.878529	0.095344	41.991000
40.919236	0.104148	42.149000
40.961261	0.106295	42.195000
41.003816	0.103670	42.242000
41.046701	0.101460	42.288000
41.207320	0.095769	42.333000
41.248979	0.085201	42.509000
41.291373	0.098528	42.555000
41.335165	0.102645	42.601000
41.377059	0.097272	42.647000
41.417816	0.083709	42.693000
41.460443	0.065207	42.739000
41.503778	0.046483	42.786000
41.545810	0.033545	42.832000
41.588407	0.022702	42.879000
41.631596	0.014398	42.925000
41.674543	0.007045	42.970000
41.716191	0.000859	43.017000
41.758492	0.007417	43.064000
41.899868	0.060721	43.110000
41.941378	0.052459	43.263000
41.984225	0.042274	43.310000
42.027844	0.039256	43.357000
42.070567	0.041711	43.403000
42.215865	0.042518	43.450000
42.259934	0.086923	43.609000
42.301651	0.101894	43.655000
42.342539	0.105110	43.702000
42.385297	0.102677	43.748000
42.428071	0.100646	43.794000
42.469685	0.099408	43.841000
42.512120	0.100940	43.886000
42.556135	0.101450	43.933000
42.598905	0.100625	43.979000
42.640469	0.101407	44.025000
42.683196	0.100265	44.071000
42.726112	0.095090	44.118000
42.767415	0.086881	44.165000
42.909282	0.048082	44.211000
42.952624	0.032690	44.365000
42.995306	0.022313	44.412000
43.037177	0.028913	44.458000
43.080108	0.038402	44.504000
43.223731	0.047625	44.551000
43.265475	0.083795	44.709000
43.309237	0.092534	44.755000
43.352156	0.093115	44.802000
43.394358	0.085633	44.849000
43.437101	0.075086	44.895000
43.480409	0.073944	44.941000
43.523263	0.088193	44.988000
43.565026	0.113288	45.034000
43.608000	0.125031	45.080000
43.650344	0.126086	45.126000
43.690543	0.124996	45.172000
43.733156	0.115764	45.219000
43.775791	0.096701	45.265000
43.918719	-0.010217	45.311000
43.960636	-0.037685	45.465000
44.003832	-0.054693	45.512000
44.045335	-0.069379	45.558000
44.086791	-0.080342	45.604000
44.232235	-0.084563	45.650000
44.274874	-0.049527	45.809000
44.317118	-0.037812	45.855000
44.359826	-0.037780	45.901000
44.403065	-0.031366	45.947000
44.445981	-0.018225	45.994000
44.488290	-0.003257	46.040000
44.530775	0.004445	46.087000
44.572643	0.012060	46.133000
44.613622	0.026988	46.179000
44.656703	0.038455	46.226000
44.699554	0.055021	46.272000
44.742451	0.068561	46.318000
44.785728	0.074927	46.365000
45.436332	0.054398	46.411000
45.478345	0.076760	47.121000
45.520739	0.078598	47.168000
45.564123	0.091567	47.213000
45.606836	0.108824	47.259000
45.649387	0.127217	47.305000
45.691127	0.141090	47.352000
45.734243	0.149676	47.399000
45.776955	0.150956	47.445000
45.920025	0.133842	47.492000
45.963621	0.126585	47.649000
46.005953	0.114949	47.695000
46.047405	0.101226	47.741000
46.090156	0.089930	47.787000
46.251827	0.081848	47.834000
46.294455	0.070283	48.009000
46.335350	0.078513	48.055000
46.378451	0.072887	48.102000
46.420825	0.059495	48.148000
46.462273	0.049669	48.194000
46.504978	0.043258	48.241000
46.547633	0.043838	48.286000
46.591294	0.049267	48.333000
46.633768	0.055085	48.378000
46.675443	0.061602	48.425000
46.718386	0.070825	48.472000
46.760664	0.092964	48.518000
46.801702	0.114588	48.565000
46.944568	0.181224	48.611000
46.986765	0.204429	48.765000
47.028091	0.224844	48.810000
47.070357	0.243219	48.856000
47.111741	0.259794	48.901000
47.258095	0.277206	48.947000
47.301111	0.331500	49.109000
47.343685	0.340196	49.155000
47.385767	0.341552	49.201000
47.428698	0.337236	49.248000
47.472544	0.327883	49.294000
47.515618	0.311436	49.341000
47.557938	0.291576	49.387000
47.599175	0.268436	49.433000
47.641219	0.243590	49.478000
47.682030	0.214948	49.524000
47.723739	0.184165	49.570000
47.766091	0.148756	49.616000
47.809145	0.113202	49.662000
47.950052	-0.012407	49.708000
47.992403	-0.047715	49.862000
48.034366	-0.081117	49.909000
48.076218	-0.108953	49.955000
48.118542	-0.134964	50.000000
48.267363	-0.156704	50.046000
48.309495	-0.185759	50.209000
48.352058	-0.195918	50.255000
48.395619	-0.204814	50.301000
48.437878	-0.216373	50.347000
48.480886	-0.228356	50.393000
48.522500	-0.237019	50.440000
48.564916	-0.245385	50.486000
48.607425	-0.252192	50.533000
48.648754	-0.261261	50.579000
48.690529	-0.267615	50.624000
48.733841	-0.270536	50.670000
48.776323	-0.263247	50.716000
48.817287	-0.258370	50.762000
48.958194	-0.257758	50.807000
49.000223	-0.249542	50.961000
49.042862	-0.240073	51.008000
49.085916	-0.225142	51.053000
49.129078	-0.208758	51.101000
49.276224	-0.193033	51.147000
49.319190	-0.165007	51.308000
49.361368	-0.165622	51.354000
49.402133	-0.164847	51.400000
49.442229	-0.159853	51.445000
49.485275	-0.132886	51.490000
49.527942	-0.105049	51.536000
49.569325	-0.087957	51.582000
49.612118	-0.074340	51.628000
49.656044	-0.062327	51.675000
49.698180	-0.046527	51.721000
49.737807	-0.029284	51.766000
49.780066	-0.020807	51.812000
49.822398	-0.018723	51.858000
50.158676	0.120714	51.904000
50.495850	0.119019	52.272000
50.538470	0.193623	52.639000
50.581674	0.229848	52.685000
50.623714	0.238861	52.730000
50.664697	0.237227	52.776000
50.706749	0.227472	52.822000
50.749346	0.209159	52.869000
50.790864	0.189150	52.915000
50.833380	0.177553	52.961000
50.976722	0.236052	53.007000
51.017518	0.252646	53.161000
51.059366	0.268118	53.207000
51.100929	0.287395	53.253000
51.141890	0.303113	53.298000
51.292455	0.312540	53.344000
51.335160	0.307302	53.508000
51.376785	0.303940	53.554000
51.418429	0.312699	53.599000
51.460942	0.323960	53.645000
51.503957	0.339104	53.691000
51.544945	0.344553	53.736000
51.584976	0.350120	53.782000
51.627838	0.348233	53.828000
51.669670	0.336707	53.873000
51.711576	0.333346	53.918000
51.753916	0.332126	53.964000
51.796820	0.321660	54.010000
51.837362	0.306061	54.056000
51.979241	0.250441	54.102000
52.021311	0.240527	54.256000
52.062817	0.232425	54.302000
52.104965	0.227177	54.347000
52.147685	0.224313	54.393000
52.302122	0.230410	54.439000
52.343682	0.212764	54.609000
52.386314	0.203963	54.654000
52.429879	0.211217	54.701000
52.472895	0.222764	54.747000
52.514501	0.239339	54.793000
52.556714	0.266603	54.840000
52.598777	0.290260	54.886000
52.639645	0.304588	54.932000
52.682373	0.307260	54.979000
52.725950	0.306506	55.025000
52.768823	0.304768	55.071000
52.810829	0.300282	55.117000
52.852830	0.296093	55.163000
52.993146	0.263917	55.209000
53.035551	0.250175	55.364000
53.078282	0.231544	55.410000
53.121452	0.212786	55.456000
53.164564	0.197377	55.502000
53.310595	0.195788	55.548000
53.354191	0.261320	55.709000
53.396562	0.269655	55.755000
53.437814	0.263462	55.801000
53.479547	0.261522	55.847000
53.521840	0.275233	55.893000
53.564046	0.307545	55.940000
53.606347	0.345550	55.986000
53.649954	0.373991	56.032000
53.693439	0.382909	56.079000
53.735006	0.382600	56.125000
53.777626	0.384552	56.172000
53.821418	0.398866	56.218000
53.861737	0.417519	56.264000
54.003194	0.452461	56.309000
54.046259	0.452744	56.464000
54.088999	0.448906	56.511000
54.130800	0.442686	56.557000
54.173528	0.438031	56.603000
54.320543	0.434445	56.649000
54.362145	0.423654	56.809000
54.404696	0.412557	56.855000
54.446863	0.401003	56.901000
54.487735	0.392281	56.948000
54.530793	0.383959	56.994000
54.574282	0.381211	57.040000
54.617044	0.389546	57.086000
54.659242	0.407733	57.133000
54.701816	0.427251	57.179000
54.745327	0.449434	57.226000
54.786537	0.469904	57.272000
54.828224	0.491125	57.319000
54.871562	0.505363	57.365000
55.522509	0.504189	57.411000
55.565567	0.362124	58.121000
55.607449	0.339368	58.168000
55.648571	0.330695	58.214000
55.691149	0.324766	58.260000
55.734703	0.313983	58.306000
55.776877	0.316284	58.352000
55.819002	0.330758	58.398000
55.862029	0.348562	58.445000
56.007865	0.439732	58.491000
56.049052	0.465633	58.649000
56.090316	0.491805	58.695000
56.132890	0.516872	58.742000
56.176133	0.539850	58.788000
56.335918	0.556193	58.835000
56.377762	0.627938	59.008000
56.421169	0.643717	59.055000
56.464324	0.673291	59.101000
56.506932	0.703523	59.147000
56.548961	0.720416	59.194000
56.591969	0.733206	59.240000
56.633037	0.744202	59.286000
56.674916	0.749304	59.333000
56.718262	0.746779	59.379000
56.761201	0.740555	59.425000
56.803164	0.725963	59.472000
56.845634	0.709462	59.518000
56.888070	0.692570	59.565000
57.029776	0.654968	59.611000
57.071320	0.647469	59.765000
57.114221	0.623473	59.811000
57.157379	0.600339	59.858000
57.199365	0.585106	59.904000
57.345320	0.576365	59.951000
57.388478	0.608073	60.109000
57.430438	0.617661	60.155000
57.472812	0.621650	60.201000
57.515470	0.620270	60.248000
57.556665	0.619540	60.294000
57.598010	0.615934	60.340000
57.642171	0.608548	60.387000
57.685063	0.600445	60.433000
57.726984	0.592952	60.480000
57.769197	0.588395	60.525000
57.812532	0.585424	60.572000
57.855421	0.587028	60.618000
57.896566	0.597007	60.664000
58.038368	0.631914	60.711000
58.081614	0.648956	60.866000
58.123604	0.671033	60.912000
58.166413	0.694977	60.958000
58.209874	0.703695	61.005000
58.353344	0.713270	61.051000
58.396233	0.846294	61.209000
58.438526	0.851814	61.255000
58.479006	0.847616	61.301000
58.522095	0.844472	61.347000
58.565941	0.841756	61.394000
58.608515	0.836752	61.440000
58.649971	0.827279	61.486000
58.692207	0.817764	61.531000
58.734766	0.809004	61.577000
58.774332	0.800669	61.623000
58.816110	0.788708	61.668000
58.858577	0.782219	61.714000
58.901896	0.778147	61.761000
59.043706	0.837693	61.807000
59.086595	0.867184	61.961000
59.128470	0.893220	62.007000
59.169469	0.918324	62.054000
59.212181	0.943108	62.100000
59.362135	0.966529	62.147000
59.403011	1.027959	62.309000
59.445620	1.032677	62.355000
59.488778	1.037522	62.401000
59.531659	1.044578	62.447000
59.573976	1.054203	62.494000
59.616884	1.058613	62.540000
59.660219	1.063991	62.587000
59.702604	1.073386	62.633000
59.744583	1.084456	62.680000
59.785375	1.094594	62.726000
59.828832	1.103586	62.773000
59.871817	1.119661	62.818000
59.914030	1.126746	62.865000
60.561480	1.086101	62.911000
60.603751	1.242426	63.622000
60.645745	1.271225	63.668000
60.688899	1.291982	63.714000
60.731919	1.312672	63.760000
60.773525	1.333429	63.806000
60.815899	1.351983	63.852000
60.859441	1.356732	63.898000
60.900451	1.373204	63.944000
61.045715	1.394372	63.990000
61.088773	1.389643	64.149000
61.130248	1.387496	64.196000
61.173495	1.383507	64.242000
61.216783	1.376896	64.289000
61.377244	1.366010	64.335000
61.418789	1.378258	64.509000
61.461417	1.386668	64.555000
61.504398	1.412207	64.602000
61.545754	1.439617	64.648000
61.587349	1.464887	64.695000
61.629861	1.497689	64.740000
61.673645	1.543848	64.786000
61.716027	1.568142	64.834000
61.758121	1.579383	64.880000
61.801110	1.591864	64.926000
61.845059	1.611652	64.973000
61.886919	1.643273	65.019000
61.927730	1.675222	65.065000
62.069877	1.743616	65.112000
62.111791	1.751868	65.265000
62.154219	1.754881	65.312000
62.198241	1.752027	65.358000
62.240715	1.746959	65.405000
62.385007	1.744822	65.450000
62.426893	1.777403	65.609000
62.468472	1.776303	65.655000
62.509901	1.774124	65.701000
62.552663	1.770920	65.748000
62.595821	1.770825	65.792000
62.638491	1.771026	65.839000
62.680739	1.773629	65.886000
62.724093	1.783223	65.932000
62.766421	1.805278	65.978000
62.808680	1.830604	66.025000
62.848780	1.856256	66.071000
62.892895	1.874842	66.117000
62.934270	1.885494	66.164000
63.078093	1.920508	66.210000
63.121274	1.937367	66.365000
63.163371	1.956106	66.411000
63.205073	1.977004	66.458000
63.249023	1.998936	66.505000
63.391436	2.020537	66.551000
63.434117	2.075000	66.709000
63.477179	2.081594	66.756000
63.520326	2.088011	66.802000
63.562984	2.087905	66.848000
63.605066	2.086759	66.894000
63.648363	2.085593	66.941000
63.691778	2.086812	66.987000
63.732689	2.086069	67.033000
63.773096	2.086144	67.079000
63.816073	2.094341	67.125000
63.860153	2.123239	67.172000
63.902220	2.159314	67.218000
63.945144	2.193132	67.264000
64.088348	2.294731	67.311000
64.129274	2.316068	67.466000
64.171625	2.327800	67.512000
64.213615	2.333140	67.559000
64.255794	2.331195	67.604000
64.400999	2.330127	67.650000
64.444880	2.345479	67.809000
64.487408	2.366475	67.855000
64.528998	2.399348	67.901000
64.571949	2.435836	67.948000
64.615276	2.470768	67.994000
64.656244	2.508295	68.040000
64.697581	2.550636	68.087000
64.741015	2.598581	68.133000
64.784066	2.650574	68.179000
64.825841	2.705574	68.226000
64.868538	2.757050	68.272000
64.912533	2.800141	68.318000
64.955599	2.845771	68.365000
65.605251	3.165491	68.411000
65.648086	3.348652	69.122000
65.690821	3.366096	69.168000
65.733149	3.385098	69.214000
65.776300	3.416891	69.261000
65.818136	3.449390	69.307000
65.858782	3.481888	69.354000
65.901317	3.514458	69.399000
65.944106	3.554963	69.446000
66.088064	3.704524	69.491000
66.131852	3.732921	69.649000
66.175248	3.758002	69.696000
66.216516	3.782932	69.742000
66.259458	3.805488	69.788000
66.420066	3.833982	69.834000
66.461510	3.965772	70.009000
66.501925	4.004651	70.055000
66.544968	4.048097	70.101000
66.587273	4.089678	70.147000
66.630370	4.128404	70.193000
66.671714	4.167447	70.239000
66.715694	4.210715	70.285000
66.757646	4.266024	70.332000
66.800351	4.340799	70.378000
66.841872	4.421312	70.425000
66.884077	4.498036	70.471000
66.927397	4.569302	70.518000
66.969656	4.637731	70.564000
67.112937	4.820370	70.611000
67.155165	4.888813	70.765000
67.195833	4.961614	70.811000
67.237524	5.028036	70.857000
67.280313	5.083923	70.903000
67.426437	5.136815	70.949000
67.469011	5.327807	71.109000
67.512476	5.373723	71.155000
67.555673	5.420730	71.202000
67.597663	5.468407	71.249000
67.639638	5.513283	71.294000
67.683241	5.561819	71.340000
67.725961	5.619917	71.387000
67.767460	5.691110	71.434000
67.809588	5.764344	71.480000
67.852131	5.822742	71.527000
67.893883	5.872318	71.573000
67.936841	5.912953	71.619000
67.980184	5.947470	71.665000
68.121229	6.127203	71.711000
68.162220	6.182192	71.865000
68.205109	6.236771	71.912000
68.248090	6.311637	71.958000
68.289888	6.398007	72.004000
68.436581	6.489330	72.050000
68.479301	6.768505	72.209000
68.520561	6.839862	72.255000
68.563158	6.903190	72.301000
68.606723	6.962207	72.348000
68.648944	7.026917	72.394000
68.690258	7.102322	72.440000
68.733101	7.183009	72.487000
68.775521	7.261110	72.533000
68.817081	7.341781	72.579000
68.860039	7.428100	72.626000
68.904173	7.519828	72.672000
68.947346	7.620727	72.719000
68.988522	7.712698	72.765000
69.129606	8.006080	72.811000
69.172280	8.095984	72.966000
69.214070	8.178127	73.013000
69.256713	8.260250	73.059000
69.300301	8.345598	73.104000
69.444581	8.437340	73.151000
69.487762	8.740962	73.309000
69.531320	8.833055	73.356000
69.572034	8.923477	73.402000
69.613671	9.012913	73.449000
69.657405	9.110414	73.495000
69.700095	9.208000	73.542000
69.741409	9.297942	73.587000
69.784336	9.388077	73.634000
69.828239	9.481365	73.679000
69.870652	9.573820	73.726000
69.912734	9.659508	73.773000
69.955085	9.741543	73.819000
69.997583	9.820332	73.865000
70.648133	10.524679	73.911000
70.691560	11.252351	74.622000
70.733873	11.348713	74.668000
70.774987	11.443855	74.714000
70.817615	11.544849	74.761000
70.859666	11.653092	74.806000
70.901641	11.768338	74.853000
70.944822	11.898082	74.900000
70.987826	12.027995	74.946000
71.132368	12.456870	74.993000
71.173497	12.585196	75.148000
71.215518	12.702249	75.194000
71.257992	12.812458	75.240000
71.298999	12.917083	75.286000
71.460774	13.015898	75.333000
71.504278	13.517367	75.509000
71.546429	13.673237	75.555000
71.588465	13.831191	75.600000
71.631316	13.995476	75.647000
71.674405	14.162660	75.694000
71.717079	14.337074	75.740000
71.757855	14.511949	75.786000
71.800006	14.693839	75.832000
71.842135	14.878056	75.878000
71.884785	15.065421	75.925000
71.926568	15.250775	75.970000
71.970010	15.434320	76.017000
72.013230	15.619266	76.063000
72.152585	16.210118	76.109000
72.195166	16.384960	76.263000
72.237871	16.557087	76.309000
72.279761	16.727048	76.356000
72.322205	16.893582	76.401000
72.470826	17.054088	76.448000
72.512816	17.579682	76.609000
72.555129	17.741992	76.656000
72.598909	17.907242	76.701000
72.641775	18.078062	76.748000
72.683120	18.244667	76.794000
72.724764	18.399478	76.841000
72.767346	18.546710	76.887000
72.809512	18.700034	76.934000
72.851948	18.846941	76.980000
72.894238	18.997028	77.025000
72.937749	19.157148	77.071000
72.980185	19.337986	77.118000
73.022129	19.523200	77.164000
73.163213	20.102713	77.211000
73.205080	20.254799	77.365000
73.247761	20.407680	77.411000
73.291296	20.570398	77.458000
73.334254	20.740939	77.504000
73.479241	20.915076	77.551000
73.522775	21.557452	77.709000
73.565019	21.753526	77.756000
73.605611	21.933346	77.802000
73.648200	22.101892	77.848000
73.691189	22.268712	77.894000
73.732680	22.442970	77.941000
73.775891	22.632489	77.987000
73.818827	22.841829	78.034000
73.861639	23.053591	78.080000
73.904313	23.273627	78.126000
73.945834	23.492292	78.172000
73.988516	23.713402	78.219000
74.030636	23.934259	78.264000
74.171881	24.635457	78.311000
74.215616	24.835858	78.466000
74.257813	25.033100	78.512000
74.300141	25.228911	78.558000
74.343007	25.425998	78.605000
74.487525	25.620807	78.651000
74.529055	26.317082	78.809000
74.571913	26.527809	78.856000
74.614464	26.740155	78.902000
74.656923	26.958870	78.948000
74.699735	27.181778	78.995000
74.742439	27.412186	79.041000
74.785836	27.646422	79.088000
74.828425	27.883433	79.134000
74.870377	28.122800	79.180000
74.913035	28.362018	79.227000
74.955225	28.601558	79.273000
74.996862	28.840486	79.320000
75.039236	29.080228	79.366000
75.692368	31.091240	79.412000
75.732952	33.374820	80.121000
75.775910	33.682060	80.168000
75.819038	33.991133	80.214000
75.861350	34.297842	80.261000
75.903294	34.596349	80.308000
75.947720	34.885682	80.354000
75.990694	35.170966	80.400000
76.032353	35.442631	80.446000
76.176702	36.342050	80.493000
76.217194	36.608010	80.650000
76.258693	36.872981	80.695000
76.302481	37.140091	80.742000
76.345470	37.411847	80.788000
76.505140	37.689956	80.834000
76.547644	38.778468	81.009000
76.590825	39.080456	81.056000
76.634406	39.397209	81.102000
76.676012	39.727635	81.149000
76.716573	40.059315	81.195000
76.759815	40.387736	81.241000
76.802612	40.716010	81.287000
76.844449	41.045649	81.334000
76.887192	41.373897	81.380000
76.931064	41.696883	81.426000
76.973730	42.021196	81.473000
77.015375	42.343387	81.519000
77.058733	42.659592	81.565000
77.199225	43.744515	81.612000
77.241430	44.066914	81.767000
77.285218	44.395697	81.814000
77.328399	44.739742	81.860000
77.370366	45.097356	81.907000
77.514853	45.449799	81.953000
77.557089	46.682722	82.109000
77.598680	47.041613	82.156000
77.640040	47.394275	82.202000
77.683259	47.753437	82.248000
77.726233	48.120824	82.295000
77.767939	48.480456	82.341000
