Sample	2mm tape 2
date	07/01/2025
	
Temperature (K)	77.00
Angle (deg.)	0.000000
field / T	0.050000
	
		
Approx. trace time (s)	60.0	
		
Current / A	V1  -sample/ uV	time/s
0.002783	-2.807794	0.000000
0.002419	-2.810202	0.154000
0.002036	-2.809183	0.201000
0.002246	-2.793786	0.247000
0.002604	-2.769725	0.294000
0.002210	-2.735654	0.340000
0.002108	-2.578247	0.515000
0.001876	-2.540714	0.561000
0.001984	-2.499247	0.607000
0.002186	-2.464403	0.653000
0.002276	-2.431122	0.700000
0.014095	-2.403935	0.745000
0.043413	-2.384030	0.791000
0.074204	-2.356302	0.837000
0.105283	-2.322569	0.884000
0.136532	-2.290437	0.930000
0.167115	-2.258551	0.976000
0.198274	-2.234819	1.022000
0.228874	-2.214873	1.068000
0.703176	-2.078038	1.115000
0.733654	-1.925253	1.826000
0.765313	-1.899837	1.873000
0.796272	-1.882137	1.919000
0.827476	-1.871280	1.966000
0.858267	-1.868396	2.012000
0.889538	-1.868787	2.058000
0.919412	-1.875235	2.104000
0.950210	-1.886963	2.151000
1.055066	-1.943949	2.197000
1.085940	-1.953852	2.354000
1.117430	-1.951032	2.401000
1.148607	-1.945083	2.447000
1.180083	-1.937225	2.494000
1.296336	-1.934055	2.540000
1.327016	-1.952093	2.714000
1.357263	-1.960490	2.761000
1.387332	-1.969005	2.807000
1.418264	-1.970268	2.853000
1.448882	-1.974997	2.900000
1.480418	-1.989621	2.946000
1.511654	-1.996987	2.993000
1.542624	-1.998475	3.038000
1.573834	-2.019425	3.084000
1.604427	-2.054427	3.131000
1.635412	-2.093269	3.177000
1.665298	-2.122265	3.224000
1.695714	-2.150260	3.270000
1.800460	-2.289018	3.316000
1.831576	-2.328083	3.471000
1.862271	-2.366651	3.517000
1.892950	-2.402832	3.563000
1.922955	-2.432603	3.609000
2.029908	-2.454797	3.654000
2.059535	-2.525706	3.814000
2.090351	-2.553240	3.860000
2.121829	-2.583794	3.908000
2.152982	-2.610315	3.954000
2.183226	-2.631839	4.000000
2.214855	-2.665794	4.046000
2.246164	-2.707382	4.091000
2.276887	-2.738549	4.138000
2.306526	-2.767710	4.184000
2.337891	-2.790658	4.231000
2.368295	-2.797402	4.277000
2.399699	-2.795546	4.324000
2.430033	-2.777052	4.370000
2.534378	-2.746641	4.416000
2.565057	-2.759270	4.571000
2.596135	-2.779959	4.617000
2.626401	-2.806776	4.664000
2.657225	-2.833604	4.710000
2.762401	-2.855357	4.757000
2.792736	-2.875668	4.914000
2.824727	-2.880207	4.961000
2.855114	-2.890023	5.007000
2.886710	-2.899163	5.053000
2.916964	-2.908409	5.100000
2.948368	-2.916271	5.146000
2.978874	-2.918662	5.192000
3.008903	-2.921559	5.238000
3.039883	-2.916536	5.285000
3.071450	-2.910926	5.331000
3.102296	-2.906687	5.377000
3.133206	-2.905098	5.424000
3.164632	-2.903281	5.470000
3.267291	-2.908410	5.517000
3.298133	-2.910220	5.672000
3.328570	-2.915310	5.718000
3.359991	-2.917107	5.764000
3.389958	-2.917617	5.810000
3.495750	-2.915055	5.857000
3.527734	-2.863504	6.015000
3.557743	-2.838270	6.060000
3.589364	-2.808016	6.107000
3.617978	-2.787784	6.153000
3.649235	-2.781920	6.198000
3.679440	-2.785760	6.244000
3.711119	-2.799237	6.290000
3.741721	-2.814644	6.337000
3.773489	-2.836182	6.383000
3.804800	-2.857484	6.430000
3.835633	-2.875005	6.476000
3.866354	-2.894457	6.522000
3.897020	-2.913372	6.569000
4.371865	-2.924086	6.615000
4.402923	-2.844052	7.327000
4.433444	-2.839637	7.373000
4.465106	-2.835331	7.419000
4.495480	-2.828928	7.465000
4.525347	-2.824442	7.511000
4.555738	-2.818716	7.558000
4.587274	-2.811877	7.604000
4.618342	-2.802810	7.651000
4.723613	-2.769366	7.697000
4.754811	-2.742653	7.855000
4.785505	-2.708347	7.901000
4.816900	-2.673895	7.947000
4.847613	-2.642688	7.994000
4.963898	-2.622621	8.039000
4.993856	-2.516936	8.215000
5.024659	-2.504128	8.261000
5.056190	-2.501557	8.307000
5.086982	-2.501694	8.353000
5.118137	-2.499293	8.399000
5.149306	-2.483296	8.446000
5.179798	-2.460109	8.492000
5.210406	-2.438729	8.537000
5.240382	-2.416830	8.584000
5.270857	-2.391878	8.630000
5.301742	-2.370552	8.676000
5.332738	-2.347554	8.722000
5.364185	-2.322560	8.769000
5.468004	-2.257628	8.815000
5.497980	-2.245029	8.969000
5.528611	-2.230090	9.016000
5.559609	-2.203877	9.062000
5.590355	-2.171129	9.109000
5.696697	-2.132706	9.155000
5.727647	-2.003047	9.315000
5.758387	-1.994447	9.361000
5.789509	-1.993612	9.408000
5.820774	-1.986502	9.453000
5.851345	-1.976948	9.499000
5.881732	-1.976439	9.545000
5.912588	-1.984459	9.592000
5.942960	-1.979656	9.638000
5.974035	-1.975029	9.685000
6.005435	-1.967022	9.731000
6.036495	-1.962176	9.777000
6.067487	-1.958783	9.824000
6.098807	-1.960575	9.870000
6.201592	-1.968719	9.916000
6.231436	-1.967415	10.072000
6.263086	-1.967997	10.118000
6.294172	-1.963894	10.164000
6.324930	-1.957530	10.211000
6.430484	-1.950416	10.257000
6.461486	-1.930045	10.415000
6.492669	-1.925030	10.461000
6.523903	-1.908488	10.507000
6.553389	-1.882879	10.553000
6.582999	-1.868490	10.599000
6.614470	-1.862241	10.645000
6.645609	-1.847618	10.692000
6.676806	-1.821807	10.738000
6.707478	-1.801120	10.784000
6.739285	-1.790579	10.831000
6.770582	-1.781660	10.877000
6.802056	-1.779233	10.924000
6.832575	-1.772680	10.971000
6.934530	-1.735567	11.017000
6.966391	-1.727735	11.172000
6.997451	-1.718768	11.219000
7.028700	-1.714956	11.265000
7.059158	-1.708115	11.312000
7.165094	-1.699670	11.358000
7.195007	-1.687462	11.515000
7.225998	-1.688132	11.561000
7.256138	-1.679327	11.607000
7.287080	-1.671055	11.653000
7.317401	-1.660095	11.699000
7.348765	-1.646683	11.746000
7.379742	-1.639786	11.792000
7.410235	-1.643861	11.838000
7.442028	-1.650227	11.884000
7.472904	-1.654290	11.930000
7.503740	-1.656522	11.977000
7.533190	-1.663977	12.024000
7.564975	-1.676104	12.070000
8.039908	-1.591718	12.116000
8.070821	-1.586947	12.827000
8.101262	-1.597461	12.873000
8.130529	-1.606399	12.920000
8.162292	-1.614240	12.966000
8.193545	-1.627092	13.012000
8.224151	-1.637017	13.059000
8.254552	-1.641288	13.105000
8.286613	-1.625949	13.151000
8.392048	-1.494226	13.197000
8.422864	-1.449489	13.355000
8.453859	-1.407728	13.401000
8.482515	-1.374049	13.448000
8.514253	-1.342025	13.494000
8.631077	-1.324198	13.541000
8.661451	-1.382978	13.714000
8.692948	-1.396180	13.761000
8.723236	-1.396731	13.807000
8.755333	-1.389182	13.854000
8.786266	-1.376647	13.900000
8.817256	-1.353371	13.946000
8.846663	-1.325062	13.993000
8.878159	-1.289240	14.039000
8.908382	-1.252521	14.084000
8.939586	-1.222323	14.131000
8.970101	-1.196668	14.178000
9.001250	-1.175574	14.224000
9.032546	-1.149986	14.270000
9.135691	-1.041451	14.316000
9.166421	-1.010350	14.470000
9.196224	-0.991240	14.518000
9.228017	-0.987285	14.564000
9.258936	-0.993127	14.610000
9.365003	-1.000127	14.657000
9.395929	-0.981537	14.815000
9.426207	-0.972737	14.860000
9.457578	-0.951476	14.907000
9.488010	-0.928643	14.953000
9.518460	-0.898957	14.999000
9.548425	-0.862719	15.046000
9.580275	-0.820118	15.092000
9.610783	-0.786389	15.138000
9.642163	-0.766762	15.184000
9.672153	-0.745107	15.230000
9.704217	-0.716273	15.277000
9.735575	-0.688447	15.324000
9.766683	-0.663424	15.370000
9.868842	-0.708462	15.417000
9.899798	-0.708685	15.571000
9.930593	-0.703239	15.618000
9.961703	-0.690902	15.663000
9.993102	-0.668248	15.710000
10.098712	-0.644167	15.757000
10.129321	-0.670327	15.915000
10.159653	-0.686226	15.961000
10.190365	-0.677538	16.008000
10.221283	-0.651092	16.054000
10.252677	-0.636903	16.100000
10.283448	-0.620879	16.147000
10.314656	-0.593778	16.193000
10.345657	-0.567051	16.239000
10.375937	-0.565090	16.285000
10.407438	-0.567658	16.331000
10.437732	-0.575283	16.378000
10.468018	-0.590225	16.424000
10.497937	-0.612472	16.470000
10.602597	-0.668875	16.516000
10.633319	-0.672565	16.671000
10.664827	-0.685147	16.717000
10.695577	-0.704199	16.763000
10.726490	-0.719274	16.810000
10.831233	-0.726903	16.856000
10.861273	-0.692267	17.015000
10.892329	-0.702687	17.061000
10.923735	-0.715709	17.107000
10.954921	-0.722532	17.153000
10.985402	-0.720080	17.200000
11.016659	-0.701756	17.245000
11.047927	-0.688925	17.292000
11.077784	-0.681460	17.338000
11.107769	-0.673763	17.384000
11.139125	-0.673307	17.431000
11.170159	-0.680146	17.477000
11.201733	-0.697261	17.523000
11.232727	-0.713350	17.570000
11.706209	-0.799482	17.616000
11.737557	-0.725441	18.327000
11.768030	-0.752237	18.374000
11.799414	-0.776389	18.420000
11.830608	-0.795004	18.466000
11.861642	-0.813337	18.513000
11.892847	-0.818679	18.559000
11.923887	-0.816574	18.606000
11.954674	-0.803531	18.652000
12.058081	-0.738008	18.698000
12.089707	-0.718322	18.855000
12.120482	-0.700317	18.902000
12.151606	-0.703945	18.948000
12.182503	-0.724161	18.994000
12.299082	-0.756735	19.040000
12.330403	-0.861872	19.215000
12.361239	-0.901073	19.261000
12.391985	-0.921569	19.308000
12.422223	-0.931560	19.354000
12.453365	-0.934390	19.400000
12.483451	-0.921326	19.447000
12.514973	-0.902430	19.493000
12.546055	-0.886521	19.539000
12.577186	-0.872271	19.586000
12.608669	-0.855980	19.632000
12.639152	-0.837912	19.679000
12.670849	-0.820340	19.725000
12.701658	-0.803967	19.772000
12.803787	-0.778420	19.818000
12.834743	-0.787063	19.973000
12.866117	-0.809730	20.019000
12.896970	-0.826552	20.065000
12.927985	-0.838601	20.111000
13.033444	-0.844473	20.158000
13.063585	-0.782822	20.314000
13.093950	-0.762786	20.361000
13.123340	-0.744039	20.407000
13.154515	-0.728435	20.453000
13.185675	-0.721993	20.499000
13.216965	-0.726393	20.545000
13.248142	-0.744208	20.592000
13.279682	-0.765609	20.638000
13.310520	-0.785835	20.685000
13.341157	-0.805331	20.731000
13.371085	-0.828370	20.777000
13.401429	-0.846290	20.824000
13.432631	-0.853983	20.869000
13.536315	-0.761597	20.916000
13.567659	-0.739785	21.070000
13.598129	-0.725408	21.117000
13.629180	-0.714702	21.164000
13.659542	-0.696320	21.209000
13.765266	-0.683224	21.256000
13.796206	-0.638207	21.414000
13.826142	-0.634262	21.460000
13.858035	-0.642735	21.507000
13.888637	-0.655767	21.553000
13.920375	-0.674260	21.600000
13.950481	-0.692403	21.645000
13.982557	-0.716356	21.692000
14.012338	-0.751591	21.739000
14.042958	-0.798286	21.784000
14.073319	-0.841286	21.831000
14.104554	-0.875616	21.878000
14.135391	-0.898054	21.924000
14.166399	-0.907286	21.970000
14.270181	-0.931123	22.016000
14.300103	-0.946724	22.171000
14.331294	-0.966956	22.217000
14.361704	-0.986223	22.264000
14.392757	-1.005651	22.310000
14.499055	-1.026182	22.356000
14.530391	-1.069107	22.515000
14.561260	-1.064674	22.561000
14.592105	-1.064441	22.608000
14.623277	-1.058947	22.654000
14.653850	-1.047624	22.701000
14.684972	-1.029405	22.746000
14.715115	-1.015385	22.793000
14.745880	-1.003149	22.839000
14.776628	-1.000040	22.886000
14.807593	-0.998832	22.932000
14.839209	-1.003044	22.978000
14.870133	-1.010550	23.025000
14.900928	-1.018250	23.071000
15.374662	-1.067092	23.118000
15.406097	-1.156894	23.826000
15.437265	-1.156894	23.874000
15.467487	-1.154757	23.920000
15.498366	-1.149774	23.966000
15.529240	-1.142750	24.011000
15.559909	-1.134010	24.058000
15.589369	-1.122809	24.103000
15.620439	-1.099571	24.150000
15.726392	-1.143265	24.196000
15.757572	-1.173901	24.354000
15.788863	-1.200528	24.400000
15.819777	-1.226221	24.447000
15.850427	-1.242642	24.493000
15.966994	-1.255841	24.540000
15.997824	-1.246080	24.715000
16.028638	-1.244726	24.760000
16.058701	-1.249402	24.807000
16.089945	-1.258348	24.853000
16.120995	-1.262167	24.899000
16.152165	-1.262869	24.946000
16.183400	-1.259808	24.992000
16.213627	-1.245943	25.039000
16.245106	-1.229120	25.085000
16.276009	-1.220479	25.131000
16.306076	-1.218025	25.177000
16.336322	-1.217297	25.224000
16.368372	-1.213518	25.270000
16.471728	-1.191008	25.317000
16.502884	-1.178959	25.471000
16.533841	-1.179341	25.518000
16.563608	-1.188979	25.564000
16.594870	-1.204318	25.610000
16.699930	-1.224215	25.657000
16.731040	-1.274738	25.815000
16.761313	-1.283485	25.860000
16.792134	-1.290678	25.907000
16.823941	-1.296772	25.953000
16.855315	-1.305023	26.000000
16.886264	-1.310704	26.046000
16.916189	-1.319506	26.093000
16.947497	-1.319029	26.139000
16.978058	-1.319790	26.186000
17.008375	-1.321973	26.231000
17.038592	-1.323115	26.277000
17.070532	-1.326565	26.323000
17.101715	-1.333266	26.370000
17.204883	-1.345735	26.417000
17.234512	-1.349490	26.570000
17.265173	-1.353762	26.616000
17.296168	-1.359785	26.663000
17.327317	-1.366922	26.709000
17.434077	-1.379118	26.755000
17.464676	-1.415710	26.915000
17.496028	-1.427249	26.962000
17.527102	-1.437707	27.008000
17.558645	-1.446327	27.054000
17.589455	-1.460696	27.101000
17.619344	-1.461302	27.147000
17.649709	-1.462627	27.193000
17.680746	-1.464896	27.240000
17.712049	-1.474334	27.286000
17.742656	-1.487057	27.332000
17.773747	-1.499835	27.379000
17.805093	-1.513696	27.424000
17.835868	-1.521584	27.470000
17.938182	-1.553167	27.517000
17.969237	-1.561114	27.672000
17.999669	-1.566602	27.718000
18.031364	-1.570497	27.765000
18.062297	-1.574303	27.811000
18.167587	-1.579243	27.856000
18.198661	-1.593019	28.014000
18.227910	-1.593673	28.060000
18.259503	-1.596626	28.106000
18.289679	-1.600255	28.153000
18.321055	-1.603891	28.199000
18.351016	-1.611000	28.246000
18.383008	-1.617009	28.292000
18.413904	-1.617932	28.338000
18.445135	-1.619675	28.385000
18.476153	-1.616343	28.430000
18.506762	-1.611955	28.477000
18.537726	-1.612482	28.523000
18.567575	-1.609181	28.570000
19.042900	-1.601014	28.615000
19.074510	-1.632814	29.327000
19.105226	-1.635725	29.374000
19.135830	-1.643329	29.419000
19.165682	-1.652733	29.466000
19.196859	-1.660751	29.513000
19.227610	-1.665108	29.559000
19.259199	-1.667649	29.605000
19.289143	-1.672132	29.652000
19.394993	-1.674928	29.698000
19.426347	-1.682414	29.855000
19.457190	-1.682372	29.901000
19.487651	-1.678589	29.948000
19.517551	-1.680852	29.994000
19.633910	-1.684438	30.040000
19.665362	-1.657168	30.215000
19.696207	-1.641097	30.261000
19.727243	-1.623176	30.308000
19.758447	-1.609815	30.353000
19.789897	-1.595819	30.400000
19.820693	-1.582239	30.446000
19.851484	-1.576714	30.492000
19.881561	-1.579253	30.539000
19.912400	-1.580819	30.586000
19.943355	-1.581771	30.632000
19.974473	-1.579996	30.679000
20.004809	-1.573202	30.724000
20.036459	-1.567119	30.771000
20.140115	-1.542400	30.818000
20.170864	-1.529876	30.972000
20.201813	-1.516261	31.019000
20.231521	-1.506282	31.065000
20.263048	-1.496622	31.111000
20.367440	-1.493474	31.158000
20.398936	-1.484629	31.315000
20.429973	-1.475350	31.361000
20.461258	-1.458045	31.407000
20.492142	-1.439488	31.454000
20.523083	-1.424968	31.500000
20.553689	-1.415668	31.547000
20.583840	-1.408926	31.593000
20.615154	-1.404440	31.639000
20.646107	-1.396889	31.685000
20.676875	-1.378545	31.731000
20.707548	-1.353191	31.778000
20.738441	-1.329252	31.824000
20.769498	-1.302222	31.869000
20.871267	-1.177858	31.916000
20.902358	-1.136019	32.071000
20.933532	-1.114378	32.117000
20.964187	-1.111437	32.164000
20.996071	-1.118935	32.210000
21.101974	-1.130806	32.256000
21.133461	-1.176462	32.415000
21.163636	-1.191156	32.462000
21.193985	-1.201131	32.508000
21.224508	-1.216314	32.554000
21.255789	-1.228443	32.600000
21.286723	-1.241815	32.647000
21.317474	-1.259841	32.692000
21.348746	-1.268283	32.739000
21.379758	-1.271329	32.786000
21.411350	-1.270908	32.832000
21.441982	-1.266042	32.879000
21.473383	-1.259439	32.924000
21.504107	-1.253705	32.971000
21.605890	-1.242968	33.018000
21.637033	-1.240905	33.172000
21.667696	-1.238144	33.217000
21.699173	-1.230189	33.264000
21.730343	-1.222259	33.311000
21.835890	-1.209859	33.357000
21.865387	-1.147931	33.515000
21.896236	-1.116153	33.561000
21.926782	-1.084674	33.607000
21.958132	-1.061588	33.654000
21.989652	-1.044707	33.700000
22.020489	-1.032311	33.747000
22.052204	-1.016160	33.793000
22.082669	-1.000602	33.840000
22.113565	-0.984929	33.885000
22.142591	-0.961526	33.932000
22.174022	-0.924392	33.977000
22.204829	-0.880576	34.024000
22.236352	-0.833237	34.071000
22.711360	-0.587371	34.116000
22.740177	-0.450552	34.827000
22.771793	-0.465326	34.874000
22.802488	-0.482696	34.920000
22.833647	-0.503809	34.966000
22.864161	-0.529204	35.013000
22.895825	-0.559756	35.059000
22.926440	-0.596967	35.105000
22.957337	-0.631653	35.151000
23.063105	-0.732486	35.197000
23.092485	-0.745657	35.356000
23.124655	-0.742485	35.402000
23.154719	-0.732752	35.449000
23.186388	-0.719751	35.495000
23.302072	-0.714206	35.542000
23.332683	-0.740009	35.715000
23.364479	-0.755497	35.762000
23.395303	-0.771585	35.807000
23.426538	-0.787220	35.854000
23.456033	-0.799290	35.900000
23.487637	-0.813136	35.947000
23.518358	-0.828665	35.993000
23.549357	-0.837150	36.040000
23.580094	-0.853239	36.086000
23.611474	-0.867407	36.133000
23.643033	-0.882406	36.179000
23.674009	-0.894615	36.226000
23.705246	-0.904147	36.272000
23.806117	-0.941218	36.318000
23.837963	-0.951281	36.473000
23.868691	-0.961186	36.519000
23.900122	-0.969129	36.565000
23.930189	-0.972342	36.611000
24.035593	-0.975194	36.657000
24.067829	-0.957358	36.815000
24.097975	-0.949574	36.862000
24.127742	-0.941049	36.908000
24.157362	-0.932884	36.953000
24.189312	-0.929575	37.000000
24.220086	-0.921994	37.045000
24.251511	-0.908855	37.092000
24.282064	-0.895284	37.139000
24.313699	-0.883315	37.185000
24.345034	-0.871828	37.231000
24.375701	-0.862254	37.278000
24.404304	-0.855598	37.323000
24.435710	-0.836853	37.369000
24.539652	-0.758988	37.416000
24.570471	-0.738061	37.570000
24.601623	-0.717339	37.617000
24.632050	-0.699354	37.663000
24.663558	-0.684522	37.710000
24.769138	-0.674430	37.756000
24.799975	-0.662108	37.915000
24.830694	-0.660582	37.962000
24.861051	-0.658651	38.008000
24.892557	-0.660762	38.054000
24.923141	-0.668014	38.100000
24.954513	-0.679796	38.147000
24.984334	-0.701300	38.193000
25.016718	-0.720978	38.239000
25.047953	-0.747772	38.286000
25.078614	-0.776049	38.332000
25.107523	-0.807490	38.379000
25.139213	-0.843384	38.424000
25.170368	-0.877634	38.471000
25.274160	-1.000738	38.516000
25.305297	-1.034982	38.672000
25.336114	-1.072614	38.718000
25.366141	-1.103027	38.764000
25.396617	-1.140101	38.811000
25.502147	-1.197723	38.857000
25.533632	-1.321008	39.015000
25.564228	-1.365330	39.061000
25.594852	-1.409951	39.108000
25.626587	-1.448850	39.154000
25.657708	-1.480769	39.201000
25.688886	-1.505412	39.246000
25.718855	-1.521413	39.293000
25.749956	-1.528475	39.339000
25.780498	-1.554277	39.386000
25.811093	-1.576873	39.432000
25.842054	-1.589874	39.479000
25.873911	-1.591239	39.525000
25.904774	-1.593240	39.572000
26.377020	-1.617453	39.619000
26.408461	-1.415827	40.327000
26.439293	-1.390441	40.373000
26.470605	-1.364789	40.419000
26.501277	-1.342414	40.465000
26.531857	-1.328202	40.512000
26.562979	-1.312375	40.558000
26.593067	-1.292169	40.604000
26.622979	-1.268602	40.650000
26.729222	-1.154256	40.696000
26.760728	-1.121144	40.855000
26.791272	-1.091183	40.901000
26.822405	-1.061756	40.948000
26.853072	-1.029956	40.994000
26.970054	-1.000093	41.040000
27.001666	-0.894268	41.215000
27.031059	-0.873328	41.261000
27.062089	-0.851771	41.308000
27.092066	-0.838590	41.353000
27.123297	-0.826890	41.399000
27.154269	-0.819134	41.446000
27.185279	-0.816977	41.492000
27.216342	-0.815856	41.538000
27.247206	-0.822922	41.584000
27.278843	-0.831722	41.631000
27.309106	-0.845982	41.678000
27.339913	-0.862583	41.724000
27.370270	-0.881781	41.771000
27.474431	-0.953657	41.816000
27.505286	-0.967369	41.971000
27.536500	-0.981927	42.018000
27.567658	-0.992278	42.064000
27.598160	-0.996189	42.110000
27.703262	-0.999731	42.157000
27.732877	-1.005978	42.315000
27.764451	-1.008100	42.361000
27.795250	-1.008462	42.407000
27.826692	-1.007518	42.454000
27.857484	-1.006288	42.500000
27.888965	-1.006627	42.546000
27.919789	-1.013052	42.593000
27.950532	-1.016829	42.639000
27.980469	-1.027740	42.685000
28.011374	-1.036889	42.731000
28.042135	-1.049096	42.778000
28.073341	-1.058799	42.824000
28.104419	-1.070643	42.871000
28.207436	-1.084609	42.916000
28.238796	-1.084545	43.071000
28.269156	-1.085593	43.117000
28.300141	-1.083113	43.164000
28.330003	-1.076793	43.211000
28.435556	-1.070294	43.256000
28.467026	-1.054960	43.415000
28.497812	-1.062880	43.461000
28.529523	-1.068670	43.508000
28.559996	-1.072116	43.554000
28.591828	-1.069011	43.600000
28.622170	-1.066475	43.647000
28.652818	-1.061142	43.692000
28.682387	-1.049710	43.739000
28.713730	-1.040166	43.786000
28.744981	-1.025354	43.831000
28.776248	-1.012555	43.878000
28.807245	-0.999160	43.924000
28.838246	-0.990400	43.970000
28.940371	-0.980760	44.017000
28.969885	-0.985937	44.170000
29.001481	-0.990092	44.217000
29.032344	-0.994155	44.263000
29.064163	-0.999128	44.310000
29.170341	-1.003063	44.356000
29.200331	-1.031630	44.515000
29.232052	-1.045278	44.560000
29.262200	-1.053740	44.607000
29.293063	-1.062117	44.653000
29.323113	-1.064642	44.699000
29.354064	-1.063887	44.745000
29.384357	-1.068077	44.792000
29.415944	-1.063982	44.837000
29.446872	-1.058650	44.884000
29.478265	-1.053506	44.930000
29.508826	-1.048237	44.977000
29.540558	-1.049752	45.023000
29.571417	-1.045374	45.070000
30.042812	-1.088140	45.115000
30.073542	-1.062234	45.827000
30.103917	-1.016647	45.874000
30.135515	-0.965046	45.920000
30.166766	-0.922745	45.967000
30.197379	-0.879011	46.013000
30.227747	-0.849147	46.060000
30.258197	-0.814543	46.106000
30.289449	-0.781084	46.152000
30.394828	-0.767366	46.198000
30.425681	-0.769014	46.356000
30.456290	-0.757240	46.402000
30.486937	-0.727895	46.447000
30.517516	-0.712016	46.494000
30.634323	-0.701904	46.540000
30.664212	-0.589406	46.715000
30.695013	-0.577530	46.762000
30.726246	-0.565482	46.808000
30.757712	-0.553902	46.854000
30.788674	-0.545747	46.901000
30.819406	-0.544020	46.946000
30.850737	-0.551369	46.993000
30.881761	-0.563001	47.040000
30.913133	-0.578411	47.085000
30.943192	-0.596184	47.133000
30.973999	-0.612374	47.179000
31.005075	-0.624962	47.225000
31.036270	-0.632882	47.272000
31.140068	-0.648906	47.318000
31.170252	-0.646510	47.473000
31.202063	-0.644973	47.519000
31.232563	-0.639744	47.566000
31.263176	-0.635789	47.612000
31.367513	-0.629130	47.659000
31.398308	-0.614243	47.815000
31.429926	-0.615960	47.862000
31.461140	-0.604688	47.909000
31.491818	-0.597317	47.954000
31.522727	-0.592238	48.001000
31.553895	-0.585335	48.048000
31.584279	-0.583861	48.093000
31.614554	-0.589101	48.140000
31.645255	-0.595536	48.186000
31.676709	-0.592706	48.233000
31.707865	-0.585453	48.280000
31.739308	-0.579896	48.326000
31.769444	-0.574976	48.372000
31.873501	-0.548271	48.419000
31.904310	-0.539957	48.574000
31.934303	-0.534251	48.619000
31.965015	-0.524126	48.666000
31.996076	-0.511792	48.712000
32.101410	-0.505801	48.759000
32.132459	-0.501656	48.915000
32.163531	-0.502196	48.961000
32.194063	-0.500987	49.008000
32.224883	-0.501232	49.054000
32.254949	-0.491933	49.101000
32.285786	-0.468838	49.146000
32.316528	-0.444956	49.193000
32.347646	-0.415825	49.239000
32.378760	-0.388921	49.286000
32.409778	-0.361093	49.331000
32.441126	-0.333300	49.378000
32.471280	-0.306081	49.423000
32.503228	-0.293916	49.470000
32.604415	-0.251009	49.516000
32.636109	-0.236925	49.671000
32.667108	-0.227561	49.718000
32.698042	-0.222324	49.764000
32.729241	-0.211962	49.810000
32.834688	-0.204520	49.857000
32.866263	-0.174902	50.015000
32.896260	-0.153726	50.061000
32.926728	-0.120057	50.108000
32.956771	-0.090185	50.154000
32.988918	-0.061829	50.201000
33.019510	-0.029370	50.247000
33.050363	0.008053	50.293000
33.081519	0.051221	50.339000
33.113068	0.089293	50.385000
33.143851	0.121613	50.431000
33.173110	0.155328	50.477000
33.203656	0.175438	50.523000
33.234412	0.180790	50.569000
33.710452	0.365105	50.615000
33.741586	0.391869	51.328000
33.771232	0.405630	51.374000
33.802796	0.415447	51.421000
33.832343	0.424894	51.466000
33.863964	0.433577	51.512000
33.893830	0.439048	51.558000
33.926185	0.436446	51.605000
33.956707	0.435206	51.651000
34.062870	0.400939	51.697000
34.093726	0.383971	51.856000
34.123154	0.363578	51.902000
34.154744	0.337661	51.948000
34.184691	0.307355	51.995000
34.301318	0.281098	52.041000
34.332824	0.200094	52.215000
34.363796	0.179119	52.261000
34.394849	0.159728	52.308000
34.425913	0.138518	52.354000
34.457354	0.120363	52.401000
34.487000	0.102315	52.447000
34.518287	0.082577	52.493000
34.548356	0.067882	52.539000
34.579271	0.051066	52.585000
34.609836	0.042476	52.632000
34.641511	0.034667	52.678000
34.672682	0.027738	52.724000
34.703793	0.024651	52.771000
34.806947	0.021685	52.817000
34.836732	0.035713	52.973000
34.868153	0.050918	53.019000
34.899221	0.058500	53.065000
34.930186	0.055604	53.112000
35.035845	0.048294	53.158000
35.066494	0.067431	53.315000
35.097766	0.074654	53.361000
35.128438	0.078746	53.408000
35.159764	0.074675	53.454000
35.189510	0.072853	53.501000
35.219598	0.070262	53.546000
35.251581	0.073816	53.593000
35.282941	0.084873	53.640000
35.313636	0.096869	53.686000
35.344670	0.107575	53.732000
35.375358	0.117318	53.778000
35.406226	0.118376	53.824000
35.436702	0.117866	53.871000
35.539180	0.086955	53.917000
35.570302	0.081232	54.072000
35.601489	0.080589	54.118000
35.632822	0.086100	54.164000
35.663299	0.096996	54.209000
35.769169	0.114007	54.256000
35.799146	0.166224	54.415000
35.829650	0.171428	54.462000
35.860894	0.156587	54.508000
35.891667	0.124258	54.554000
35.922466	0.107988	54.601000
35.953872	0.094319	54.647000
35.985082	0.075670	54.693000
36.015482	0.057032	54.738000
36.045747	0.038157	54.784000
36.075877	0.027325	54.829000
36.105670	0.013065	54.875000
36.136365	0.008272	54.921000
36.166504	0.004276	54.967000
36.271118	-0.017178	55.012000
36.301444	-0.017855	55.167000
36.331790	-0.024847	55.214000
36.362132	-0.032797	55.260000
36.393001	-0.036837	55.306000
36.501721	-0.036614	55.352000
36.532594	-0.055233	55.515000
36.563631	-0.068702	55.562000
36.594657	-0.082284	55.608000
36.625341	-0.105231	55.654000
36.656927	-0.128709	55.700000
36.687707	-0.149155	55.746000
36.719190	-0.163812	55.793000
36.749263	-0.183810	55.839000
36.780105	-0.208485	55.886000
36.810785	-0.225442	55.932000
36.841419	-0.231878	55.978000
36.871557	-0.240923	56.024000
36.903351	-0.243022	56.070000
37.377005	-0.290573	56.117000
37.407401	-0.308958	56.828000
37.438892	-0.317305	56.874000
37.469103	-0.325969	56.921000
37.501147	-0.337828	56.966000
37.532515	-0.346893	57.012000
37.563656	-0.351466	57.060000
37.594670	-0.342992	57.106000
37.625911	-0.339943	57.153000
37.729757	-0.339534	57.199000
37.759803	-0.343152	57.355000
37.791182	-0.346006	57.402000
37.821420	-0.347583	57.449000
37.853391	-0.348789	57.495000
37.969922	-0.343880	57.540000
38.000403	-0.246616	57.715000
38.031459	-0.217319	57.761000
38.061209	-0.183227	57.808000
38.092984	-0.171149	57.854000
38.123192	-0.173842	57.900000
38.154444	-0.169579	57.947000
38.184940	-0.148074	57.993000
38.216219	-0.115878	58.040000
38.247695	-0.093227	58.086000
38.278824	-0.081819	58.132000
38.310077	-0.083398	58.179000
38.341014	-0.081903	58.226000
38.372712	-0.076474	58.272000
38.474091	-0.090206	58.319000
38.505229	-0.102432	58.473000
38.536059	-0.120958	58.519000
38.567780	-0.139038	58.566000
38.598932	-0.156472	58.612000
38.703404	-0.173036	58.659000
38.734695	-0.188953	58.815000
38.763765	-0.189503	58.862000
38.795521	-0.192939	58.909000
38.826797	-0.196598	58.955000
38.857596	-0.195463	59.001000
38.888237	-0.185412	59.048000
38.920062	-0.172803	59.094000
38.950666	-0.162272	59.140000
38.981661	-0.162538	59.185000
39.011557	-0.164606	59.232000
39.042813	-0.159442	59.278000
39.073762	-0.151383	59.325000
39.104607	-0.144777	59.372000
39.207981	-0.146176	59.418000
39.238280	-0.153027	59.572000
39.270347	-0.164075	59.619000
39.301254	-0.172251	59.665000
39.331796	-0.178497	59.711000
39.435995	-0.176587	59.758000
39.466241	-0.136492	59.915000
39.497989	-0.111041	59.962000
39.528358	-0.089199	60.008000
39.559752	-0.085093	60.054000
39.590071	-0.085146	60.100000
39.622200	-0.086696	60.146000
39.652737	-0.093079	60.193000
39.682937	-0.101011	60.238000
39.712323	-0.109600	60.285000
39.744324	-0.118858	60.332000
39.775700	-0.125326	60.377000
39.806468	-0.137382	60.424000
39.836449	-0.149644	60.469000
39.940233	-0.174881	60.515000
39.970153	-0.179303	60.670000
40.000333	-0.184869	60.716000
40.031958	-0.185633	60.763000
40.063030	-0.186291	60.808000
40.169734	-0.176854	60.855000
40.199911	-0.103185	61.015000
40.230802	-0.079803	61.060000
40.262385	-0.064575	61.107000
40.292746	-0.054809	61.153000
40.322570	-0.036224	61.199000
40.352819	-0.018437	61.244000
40.384037	-0.010239	61.291000
40.415194	-0.010355	61.337000
40.445651	-0.003214	61.384000
40.477042	0.002602	61.430000
40.508010	0.001620	61.475000
40.538851	0.004781	61.522000
40.569696	0.007162	61.567000
41.044396	0.096129	61.614000
41.075617	0.224134	62.328000
41.106409	0.234864	62.374000
41.137419	0.239361	62.420000
41.168184	0.235108	62.465000
41.198806	0.229339	62.512000
41.229045	0.220941	62.558000
41.259202	0.217697	62.605000
41.290631	0.216402	62.650000
41.396947	0.184271	62.697000
41.428100	0.173542	62.856000
41.459199	0.160860	62.902000
41.489748	0.145510	62.948000
41.521166	0.129630	62.995000
41.637305	0.117549	63.041000
41.667851	0.099776	63.215000
41.698004	0.103680	63.261000
41.729345	0.114248	63.308000
41.759764	0.119529	63.354000
41.790963	0.118662	63.400000
41.821539	0.110896	63.445000
41.852277	0.095684	63.492000
41.884478	0.068402	63.539000
41.915039	0.051594	63.585000
41.945246	0.032785	63.631000
41.974186	0.013564	63.677000
42.005834	0.000901	63.723000
42.036545	-0.001744	63.768000
42.140375	0.028343	63.814000
42.171274	0.044538	63.970000
42.200894	0.058926	64.015000
42.230990	0.075415	64.061000
42.262220	0.088819	64.107000
42.370399	0.091146	64.154000
42.400852	0.098845	64.315000
42.432401	0.118556	64.361000
42.463050	0.140866	64.408000
42.494133	0.158490	64.454000
42.525236	0.177107	64.500000
42.555966	0.200899	64.547000
42.587092	0.226349	64.593000
42.618037	0.230590	64.640000
42.648663	0.221599	64.686000
42.679420	0.217113	64.732000
42.710549	0.209891	64.779000
42.740738	0.208429	64.825000
42.772244	0.209117	64.871000
42.875951	0.212863	64.918000
42.906155	0.224663	65.072000
42.935813	0.233730	65.118000
42.967073	0.242096	65.164000
42.998383	0.251936	65.211000
43.104169	0.263125	65.257000
43.135064	0.248789	65.416000
43.165521	0.229381	65.462000
43.196851	0.211971	65.508000
43.227377	0.195290	65.553000
43.257627	0.183234	65.600000
43.286678	0.178803	65.644000
43.318057	0.186245	65.690000
43.348507	0.209501	65.736000
43.379629	0.215343	65.782000
43.409517	0.200497	65.827000
43.441119	0.184113	65.874000
43.471596	0.172688	65.920000
43.501603	0.173552	65.966000
43.605065	0.188185	66.012000
43.635722	0.187792	66.168000
43.667312	0.179371	66.213000
43.698661	0.168760	66.260000
43.729767	0.155854	66.307000
43.838127	0.148250	66.353000
43.868089	0.127154	66.516000
43.899956	0.119201	66.562000
43.929476	0.115443	66.607000
43.959968	0.113298	66.654000
43.990083	0.111288	66.700000
44.022300	0.112409	66.747000
44.053548	0.116176	66.793000
44.084893	0.124077	66.840000
44.115535	0.136010	66.887000
44.147098	0.147592	66.933000
44.178385	0.157888	66.980000
44.209338	0.171066	67.026000
44.240433	0.180113	67.073000
44.712770	0.271534	67.119000
44.743381	0.452421	67.828000
44.774556	0.457012	67.874000
44.804933	0.454770	67.920000
44.834967	0.448708	67.967000
44.866016	0.440287	68.013000
44.897130	0.444635	68.059000
44.928241	0.462502	68.105000
44.959301	0.481946	68.152000
45.065467	0.571778	68.197000
45.096923	0.607130	68.357000
45.128203	0.633167	68.402000
45.158256	0.656412	68.448000
45.188998	0.670442	68.495000
45.304046	0.678393	68.542000
45.335606	0.686537	68.716000
45.366347	0.683419	68.762000
45.397346	0.683292	68.807000
45.428349	0.683006	68.854000
45.459824	0.685870	68.900000
45.491085	0.686050	68.946000
45.521035	0.692889	68.993000
45.551307	0.704521	69.039000
45.581661	0.707534	69.085000
45.613075	0.707088	69.131000
45.644043	0.699167	69.178000
45.674804	0.684799	69.223000
45.706452	0.672106	69.270000
45.809502	0.637632	69.317000
45.840125	0.634291	69.471000
45.870467	0.633157	69.518000
45.900932	0.628927	69.563000
45.932518	0.614993	69.610000
46.038504	0.602444	69.657000
46.069726	0.649308	69.816000
46.100682	0.658862	69.861000
46.131485	0.663919	69.908000
46.162826	0.670304	69.955000
46.194267	0.685329	70.001000
46.224390	0.696899	70.048000
46.254305	0.702062	70.094000
46.285877	0.707227	70.141000
46.317317	0.707555	70.187000
46.348339	0.694290	70.233000
46.378408	0.676337	70.279000
46.410452	0.662128	70.325000
46.441232	0.659710	70.372000
46.543234	0.687599	70.418000
46.573361	0.696443	70.572000
46.604279	0.707365	70.619000
46.636327	0.715996	70.665000
46.667502	0.721797	70.712000
46.772839	0.728724	70.758000
46.803496	0.768117	70.916000
46.834060	0.770790	70.962000
46.864817	0.779337	71.008000
46.895351	0.780439	71.055000
46.926004	0.777077	71.101000
46.956062	0.758204	71.147000
46.987964	0.735382	71.193000
47.018579	0.727875	71.239000
47.049796	0.721946	71.285000
47.080307	0.719993	71.332000
47.112348	0.710429	71.378000
47.142044	0.701384	71.424000
47.172932	0.692243	71.470000
47.275855	0.658586	71.517000
47.307031	0.654206	71.670000
47.337342	0.643866	71.716000
47.368656	0.635841	71.763000
47.399878	0.626869	71.809000
47.505606	0.617865	71.855000
47.536202	0.604128	72.016000
47.565790	0.598109	72.062000
47.598157	0.579565	72.108000
47.628876	0.572244	72.155000
47.660528	0.569895	72.201000
47.691407	0.560859	72.248000
47.722437	0.562586	72.294000
47.753663	0.580760	72.340000
47.784054	0.600171	72.387000
47.815691	0.614728	72.433000
47.845472	0.628300	72.479000
47.875991	0.647749	72.526000
47.906145	0.694523	72.571000
48.380306	0.794669	72.618000
48.411297	0.800120	73.327000
48.441351	0.800777	73.374000
48.472980	0.801224	73.421000
48.502965	0.801658	73.467000
48.534985	0.812590	73.513000
48.565996	0.819462	73.559000
48.597298	0.805051	73.606000
48.627510	0.783113	73.652000
48.733192	0.678298	73.698000
48.764141	0.660462	73.856000
48.794052	0.637505	73.902000
48.825393	0.605493	73.949000
48.855827	0.570964	73.994000
48.973142	0.545392	74.041000
49.004003	0.518035	74.216000
49.034464	0.503860	74.262000
49.065885	0.492322	74.307000
49.095624	0.481881	74.354000
49.126473	0.474614	74.400000
49.157319	0.470645	74.446000
49.187910	0.462057	74.493000
49.218102	0.464657	74.538000
49.249920	0.480356	74.585000
49.281022	0.507735	74.631000
49.312113	0.536297	74.677000
49.342109	0.567956	74.723000
49.374057	0.612634	74.770000
49.475936	0.750027	74.816000
49.506766	0.764523	74.970000
49.538080	0.768520	75.016000
49.568176	0.781129	75.063000
49.600097	0.806059	75.109000
49.706974	0.826213	75.156000
49.737665	0.814415	75.316000
49.768384	0.800949	75.362000
49.798695	0.777576	75.408000
49.828657	0.757133	75.454000
49.859809	0.745309	75.501000
49.891523	0.722722	75.547000
49.922237	0.698700	75.593000
49.953509	0.675648	75.639000
49.984842	0.656392	75.685000
50.015153	0.643232	75.732000
50.045507	0.632299	75.777000
50.076018	0.612443	75.824000
50.106955	0.588173	75.870000
50.210190	0.582770	75.917000
50.241201	0.597295	76.071000
50.272046	0.617389	76.117000
50.302380	0.637663	76.162000
50.332814	0.651598	76.209000
50.440275	0.669029	76.255000
50.471370	0.696750	76.416000
50.501482	0.704141	76.462000
50.531823	0.709719	76.509000
50.563022	0.715953	76.555000
50.594321	0.725139	76.601000
50.624939	0.723612	76.647000
50.655577	0.714523	76.692000
50.686806	0.711160	76.739000
50.717348	0.698849	76.785000
50.747928	0.679826	76.832000
50.777890	0.658438	76.878000
50.809692	0.650812	76.925000
50.840591	0.644695	76.971000
50.944375	0.615447	77.017000
50.975436	0.612115	77.172000
51.005105	0.604911	77.218000
51.036519	0.602423	77.265000
51.066742	0.604043	77.310000
51.173181	0.619669	77.356000
51.203446	0.657303	77.515000
51.234479	0.668426	77.562000
51.265982	0.681363	77.608000
51.296884	0.690047	77.654000
51.327511	0.688405	77.700000
51.357419	0.673952	77.746000
51.388506	0.658904	77.793000
51.419558	0.650357	77.839000
51.450265	0.636359	77.886000
51.480523	0.626922	77.931000
51.512590	0.613065	77.978000
51.543312	0.603640	78.024000
51.574753	0.594935	78.070000
52.048092	0.597432	78.117000
52.078672	0.692487	78.828000
52.110366	0.679560	78.875000
52.141008	0.666020	78.921000
52.172441	0.649625	78.967000
52.202948	0.634513	79.013000
52.234216	0.628268	79.059000
52.264677	0.624017	79.106000
52.294274	0.610919	79.151000
52.400505	0.572318	79.198000
52.430747	0.560964	79.356000
52.462372	0.548082	79.403000
52.493410	0.534919	79.449000
52.524920	0.522291	79.496000
52.641170	0.504519	79.542000
52.670640	0.472053	79.716000
52.702707	0.471808	79.762000
52.733222	0.469364	79.809000
52.763556	0.470192	79.855000
52.793625	0.472593	79.901000
52.825320	0.473905	79.947000
52.856741	0.479628	79.994000
52.887867	0.481361	80.040000
52.918693	0.480017	80.085000
52.949995	0.479044	80.133000
52.981148	0.485298	80.179000
53.010956	0.499758	80.225000
53.041206	0.521445	80.271000
53.144410	0.649477	80.318000
53.176150	0.695795	80.473000
53.207464	0.723536	80.518000
53.237760	0.747959	80.565000
53.268809	0.761945	80.611000
53.372662	0.771000	80.658000
53.404214	0.785263	80.816000
53.434349	0.781859	80.862000
53.466016	0.777491	80.908000
53.496531	0.768966	80.955000
53.528083	0.764438	81.001000
53.558533	0.760333	81.046000
53.589705	0.752804	81.092000
53.619804	0.746293	81.139000
53.651353	0.741564	81.185000
53.681556	0.739581	81.231000
53.712694	0.738818	81.277000
53.743135	0.734481	81.324000
53.774369	0.725086	81.370000
53.878126	0.670568	81.417000
53.908457	0.657323	81.571000
53.937923	0.644450	81.616000
53.967850	0.634874	81.662000
53.999797	0.631003	81.708000
54.106878	0.629784	81.754000
54.137727	0.635362	81.916000
54.169260	0.633061	81.961000
54.199698	0.628757	82.008000
54.231822	0.617547	82.055000
54.263156	0.602763	82.102000
54.294208	0.582547	82.148000
54.324785	0.571680	82.195000
54.355307	0.559482	82.241000
54.385499	0.549933	82.287000
54.415983	0.547994	82.334000
54.447025	0.545046	82.380000
54.478216	0.543138	82.426000
54.509633	0.535610	82.472000
54.612780	0.488759	82.518000
54.642845	0.475927	82.673000
54.672814	0.459170	82.719000
54.704063	0.447481	82.765000
54.735846	0.441302	82.812000
54.840448	0.435112	82.858000
54.872507	0.440319	83.016000
54.903045	0.444180	83.062000
54.933987	0.454769	83.108000
54.965028	0.473493	83.155000
54.995539	0.509576	83.202000
55.025815	0.546525	83.248000
55.057079	0.576814	83.295000
55.088228	0.602140	83.341000
55.119531	0.632648	83.387000
55.150103	0.654482	83.434000
55.181263	0.653209	83.480000
55.212973	0.647632	83.526000
55.243576	0.655289	83.573000
55.715409	0.623624	83.620000
55.746551	0.655182	84.327000
55.777619	0.673685	84.374000
55.808875	0.692180	84.420000
55.838917	0.703006	84.465000
55.868783	0.712581	84.513000
55.899928	0.724301	84.559000
55.930623	0.742042	84.604000
55.961868	0.762243	84.651000
56.068226	0.695858	84.697000
56.098987	0.694374	84.857000
56.130581	0.696218	84.903000
56.161845	0.695572	84.950000
56.192625	0.688690	84.996000
56.307954	0.676750	85.043000
56.338484	0.688235	85.216000
56.368841	0.707724	85.262000
56.400294	0.737650	85.308000
56.431765	0.770206	85.355000
56.462337	0.790418	85.401000
56.493505	0.797945	85.447000
56.524385	0.804818	85.494000
56.555734	0.824254	85.540000
56.584854	0.852442	85.586000
56.616352	0.890324	85.632000
56.646633	0.928905	85.679000
56.677874	0.962797	85.724000
56.708385	1.000045	85.770000
56.812499	1.122189	85.817000
56.843475	1.109813	85.972000
56.874121	1.093058	86.018000
56.904278	1.085023	86.065000
56.934478	1.075669	86.110000
57.040856	1.065065	86.157000
57.071647	1.016862	86.316000
57.103695	1.029007	86.362000
57.134671	1.030023	86.409000
57.165904	1.043523	86.455000
57.196837	1.079571	86.502000
57.227986	1.104480	86.548000
57.258317	1.124332	86.595000
57.287986	1.141805	86.640000
57.318778	1.156144	86.686000
57.350407	1.177045	86.733000
57.381313	1.205666	86.779000
57.411482	1.236428	86.825000
57.443503	1.265008	86.871000
57.545021	1.271706	86.917000
57.576004	1.242950	87.072000
57.606550	1.213947	87.117000
57.637583	1.193906	87.163000
57.668532	1.184023	87.209000
57.774545	1.182718	87.256000
57.805840	1.215368	87.416000
57.836835	1.232749	87.461000
57.868103	1.250987	87.508000
57.897388	1.265112	87.554000
57.928279	1.275409	87.600000
57.959159	1.279894	87.646000
57.990339	1.280286	87.693000
58.021092	1.273071	87.739000
58.052459	1.259083	87.785000
58.083647	1.249567	87.831000
58.114622	1.233290	87.878000
58.145533	1.223576	87.924000
58.176052	1.221614	87.971000
58.278249	1.173461	88.016000
58.309106	1.160534	88.171000
58.339936	1.159899	88.217000
58.370124	1.176186	88.262000
58.401158	1.201902	88.308000
58.509060	1.235866	88.353000
58.539445	1.404795	88.516000
58.570205	1.444434	88.562000
58.599341	1.480195	88.608000
58.631538	1.507036	88.655000
58.662157	1.528264	88.701000
58.693444	1.543831	88.747000
58.723728	1.557372	88.793000
58.755138	1.570023	88.839000
58.786372	1.582928	88.886000
58.817286	1.596292	88.932000
58.847835	1.607679	88.979000
58.878062	1.624031	89.025000
58.909226	1.638007	89.071000
59.384098	1.761659	89.118000
59.414398	1.769772	89.827000
59.444337	1.762822	89.874000
59.475047	1.758210	89.920000
59.506719	1.753572	89.967000
59.537460	1.753163	90.013000
59.568732	1.759130	90.060000
59.599247	1.776765	90.106000
59.630330	1.803683	90.151000
59.736396	1.833591	90.198000
59.767384	1.832798	90.357000
59.796777	1.832692	90.403000
59.828056	1.826821	90.449000
59.858844	1.820569	90.496000
59.975271	1.811313	90.542000
60.006020	1.816505	90.716000
60.036462	1.831306	90.762000
60.067354	1.862334	90.808000
60.096228	1.895126	90.854000
60.126762	1.926621	90.901000
60.157035	1.951541	90.947000
60.187942	1.973575	90.994000
60.218276	2.000044	91.039000
60.249229	2.021922	91.086000
60.280204	2.048729	91.131000
60.311203	2.068888	91.178000
60.342072	2.093935	91.224000
60.373009	2.124334	91.270000
60.475214	2.217842	91.317000
60.505410	2.245501	91.471000
60.536824	2.268734	91.517000
60.568119	2.289807	91.563000
60.599095	2.314358	91.610000
60.705637	2.342241	91.656000
60.735983	2.363407	91.815000
60.766821	2.370065	91.861000
60.797593	2.385039	91.907000
60.828016	2.405482	91.954000
60.858254	2.434252	92.000000
60.889672	2.458474	92.046000
60.920621	2.479777	92.093000
60.952011	2.503391	92.138000
60.982645	2.532628	92.185000
61.014086	2.559318	92.231000
61.044758	2.582595	92.277000
61.075469	2.596026	92.324000
61.104985	2.607970	92.370000
61.208354	2.663552	92.416000
61.239922	2.679948	92.571000
61.271274	2.690644	92.617000
61.302204	2.700006	92.664000
61.332504	2.721046	92.710000
61.439642	2.756177	92.756000
61.469749	2.855800	92.915000
61.500076	2.895121	92.961000
61.530399	2.940614	93.008000
61.561417	2.991213	93.054000
61.592954	3.044511	93.101000
61.624037	3.098208	93.147000
61.655374	3.152720	93.194000
61.685812	3.197711	93.239000
61.717383	3.236797	93.286000
61.747906	3.271250	93.332000
61.778540	3.299531	93.378000
61.807764	3.336488	93.425000
61.839573	3.361535	93.470000
61.942927	3.421110	93.516000
61.974280	3.449358	93.671000
62.004879	3.466832	93.717000
62.034499	3.483907	93.763000
62.066013	3.504452	93.810000
62.171602	3.535540	93.856000
62.203220	3.671959	94.016000
62.233831	3.713623	94.062000
62.264891	3.746932	94.109000
62.295713	3.778214	94.154000
62.327300	3.816908	94.201000
62.357761	3.850021	94.246000
62.388441	3.875763	94.293000
62.419140	3.895595	94.340000
62.449064	3.908144	94.384000
62.479721	3.921157	94.432000
62.510570	3.925469	94.478000
62.542225	3.930452	94.524000
62.573174	3.934687	94.570000
63.047174	4.109051	94.617000
63.077912	4.553090	95.328000
63.108012	4.611869	95.374000
63.139933	4.663586	95.420000
63.170413	4.699289	95.467000
63.201650	4.731107	95.513000
63.231931	4.761817	95.559000
63.262876	4.790348	95.604000
63.292907	4.817473	95.650000
63.399496	4.882606	95.697000
63.430429	4.900916	95.857000
63.460783	4.918246	95.903000
63.492519	4.936197	95.949000
63.523549	4.950875	95.996000
63.639684	4.964236	96.043000
63.670952	5.062091	96.215000
63.701325	5.093691	96.262000
63.732942	5.125928	96.309000
63.763349	5.158443	96.355000
63.793807	5.194890	96.402000
63.824137	5.227198	96.447000
63.855593	5.261831	96.494000
63.887030	5.292717	96.540000
63.917768	5.324266	96.587000
63.948951	5.354519	96.633000
63.980338	5.383979	96.680000
64.011429	5.415229	96.726000
64.041855	5.445674	96.772000
64.144118	5.568512	96.818000
64.174541	5.608713	96.973000
64.206431	5.647890	97.019000
64.237200	5.693258	97.066000
64.268675	5.740484	97.112000
64.373992	5.792256	97.158000
64.403977	5.934504	97.315000
64.434057	5.963390	97.362000
64.465248	6.000483	97.408000
64.496259	6.037543	97.455000
64.527531	6.078800	97.501000
64.558472	6.119484	97.547000
64.589329	6.164833	97.593000
64.620539	6.224698	97.640000
64.651150	6.284282	97.686000
64.682314	6.348374	97.732000
64.713163	6.411088	97.779000
64.743505	6.476844	97.825000
64.773708	6.538547	97.871000
64.877312	6.787960	97.918000
64.908668	6.871075	98.071000
64.939510	6.950674	98.118000
64.970513	7.018841	98.164000
65.000232	7.089541	98.211000
65.106049	7.168561	98.257000
65.136637	7.344482	98.415000
65.168108	7.383994	98.462000
65.199310	7.424945	98.509000
65.230836	7.468294	98.555000
65.260648	7.521024	98.601000
65.292426	7.585000	98.647000
65.322899	7.656727	98.693000
65.353840	7.736700	98.740000
65.383567	7.819490	98.786000
65.415277	7.909385	98.833000
65.445757	8.000458	98.879000
65.477405	8.102568	98.925000
65.507678	8.204224	98.971000
65.611336	8.519142	99.017000
65.642592	8.607103	99.172000
65.672542	8.691797	99.219000
65.702853	8.772087	99.265000
65.733380	8.849557	99.311000
65.839627	8.924581	99.357000
65.871244	9.170933	99.516000
65.902462	9.243683	99.563000
65.933449	9.315439	99.609000
65.963814	9.401069	99.656000
65.995708	9.500547	99.702000
66.026496	9.578115	99.748000
66.057368	9.646139	99.795000
66.087203	9.726669	99.842000
66.118467	9.814494	99.888000
66.149339	9.896863	99.934000
66.180841	9.971856	99.980000
66.210891	10.050898	100.026000
66.242593	10.130263	100.073000
66.715249	10.800145	100.119000
66.746013	11.609241	100.828000
66.777170	11.692328	100.874000
66.808242	11.791195	100.920000
66.839436	11.901730	100.967000
66.869379	12.004686	101.013000
66.899928	12.093192	101.059000
66.930355	12.173125	101.105000
66.961573	12.250202	101.152000
67.067504	12.472282	101.199000
67.098146	12.532093	101.356000
67.129702	12.588414	101.403000
67.159890	12.651463	101.449000
67.191861	12.721005	101.496000
67.307858	12.797672	101.542000
67.338538	13.128794	101.716000
67.368949	13.217365	101.763000
67.398853	13.306665	101.809000
67.430333	13.396012	101.855000
67.461412	13.478893	101.901000
67.492330	13.561659	101.946000
67.523525	13.646770	101.993000
67.554313	13.741383	102.040000
67.585523	13.832415	102.085000
67.614920	13.929738	102.132000
67.646253	14.028646	102.178000
67.676610	14.131000	102.224000
67.707982	14.236357	102.271000
67.811747	14.611560	102.317000
67.843103	14.736529	102.472000
67.873829	14.863280	102.518000
67.904863	14.994549	102.565000
67.935343	15.127254	102.612000
68.040161	15.260656	102.658000
68.071002	15.711815	102.816000
68.101267	15.844865	102.862000
68.132839	15.976275	102.907000
68.163964	16.106234	102.954000
68.195105	16.237803	103.000000
68.224856	16.367888	103.046000
68.256688	16.497695	103.093000
68.286884	16.635766	103.139000
68.317065	16.779538	103.185000
68.347491	16.925582	103.231000
68.379163	17.073460	103.277000
68.410880	17.226347	103.323000
68.441483	17.380740	103.370000
68.544587	17.880184	103.416000
68.574015	18.009027	103.571000
68.605356	18.123702	103.618000
68.636359	18.238290	103.664000
68.667646	18.355442	103.710000
68.774254	18.489067	103.756000
68.804803	18.921726	103.915000
68.836105	19.046478	103.962000
68.867269	19.183191	104.008000
68.898364	19.324144	104.054000
68.928169	19.470918	104.101000
68.958833	19.606499	104.147000
68.989152	19.741248	104.193000
69.020301	19.877943	104.239000
69.050566	20.006735	104.285000
69.081953	20.137725	104.331000
69.113386	20.257112	104.377000
69.144012	20.382870	104.423000
69.173962	20.518867	104.470000
69.277435	21.060976	104.516000
69.308530	21.239690	104.671000
69.339579	21.419054	104.717000
69.370720	21.600909	104.764000
69.401669	21.787953	104.810000
69.507785	21.977340	104.857000
69.539334	22.642579	105.016000
69.569637	22.825645	105.062000
69.600233	23.008041	105.109000
69.630252	23.182341	105.154000
69.661239	23.350093	105.201000
69.692903	23.522230	105.247000
69.723176	23.690874	105.293000
69.753756	23.865149	105.339000
69.785696	24.039719	105.386000
69.817098	24.218601	105.433000
69.847625	24.393139	105.478000
69.877544	24.564704	105.524000
69.908424	24.734536	105.571000
70.383407	26.077706	105.617000
70.414080	27.220389	106.328000
70.444614	27.353023	106.374000
70.474187	27.490631	106.421000
70.505736	27.623172	106.467000
70.536408	27.754992	106.514000
70.567664	27.884019	106.560000
70.598298	28.020127	106.607000
70.629800	28.172433	106.652000
70.735425	28.713581	106.699000
70.766727	28.877525	106.857000
70.797154	29.049698	106.902000
70.827081	29.228231	106.949000
70.857623	29.407791	106.994000
70.973558	29.588613	107.041000
71.005214	30.326771	107.216000
71.036294	30.533529	107.263000
71.066590	30.739612	107.309000
71.098345	30.931980	107.355000
71.129294	31.123080	107.401000
71.160535	31.310908	107.447000
71.189801	31.489232	107.493000
71.222041	31.663491	107.540000
71.251784	31.835977	107.586000
71.283194	32.019993	107.633000
71.313590	32.208828	107.679000
71.345630	32.401069	107.726000
71.376225	32.596554	107.772000
71.480382	33.299035	107.818000
71.510524	33.530256	107.972000
71.539721	33.766021	108.018000
71.571277	33.998715	108.065000
71.602303	34.234171	108.111000
71.708320	34.453653	108.157000
71.739445	35.109936	108.316000
71.770917	35.305708	108.363000
71.802058	35.501105	108.409000
71.833591	35.692375	108.456000
71.864301	35.876574	108.502000
71.894275	36.064296	108.549000
71.925592	36.249982	108.595000
71.955834	36.427116	108.642000
71.987444	36.596114	108.688000
72.017917	36.763563	108.735000
72.049695	36.925864	108.781000
72.080283	37.091765	108.827000
72.111847	37.253343	108.874000
72.214052	37.822298	108.920000
72.244225	37.991915	109.074000
72.275927	38.167263	109.121000
72.306838	38.343270	109.167000
72.338148	38.516564	109.214000
72.442405	38.693356	109.260000
72.473407	39.293516	109.416000
72.503987	39.469470	109.462000
72.534644	39.652381	109.509000
72.564979	39.836502	109.555000
72.595828	40.008639	109.602000
72.626400	40.182142	109.648000
72.658110	40.360952	109.694000
72.689382	40.541477	109.740000
72.720292	40.736342	109.787000
72.751026	40.930301	109.832000
72.782036	41.118272	109.879000
72.812586	41.315697	109.925000
72.842098	41.521353	109.971000
72.945848	42.278944	110.017000
72.976727	42.495133	110.172000
73.007915	42.697868	110.218000
73.038625	42.931354	110.264000
73.069774	43.157310	110.310000
73.175952	43.354898	110.357000
73.204688	43.968893	110.515000
73.236036	44.142057	110.562000
73.267116	44.320163	110.608000
73.298526	44.494565	110.655000
73.328660	44.692665	110.701000
73.360478	44.907556	110.747000
73.391665	45.122878	110.793000
73.422283	45.335726	110.840000
73.452134	45.547022	110.886000
73.483167	45.770432	110.932000
73.513801	45.996753	110.978000
73.544458	46.226898	111.024000
73.575468	46.460655	111.070000
74.050283	48.568560	111.117000
