Sample	2mm tape 2
date	08/01/2025
	
Temperature (K)	77.00
Angle (deg.)	0.000000
field / T	0.040000
	
		
Approx. trace time (s)	60.0	
		
Current / A	V1  -sample/ uV	time/s
0.001482	-1.629061	0.000000
0.001798	-1.628420	0.048000
0.001911	-1.633433	0.094000
0.002001	-1.637660	0.140000
0.001995	-1.639621	0.187000
0.002025	-1.639358	0.234000
0.001887	-1.640827	0.280000
0.001739	-1.643700	0.325000
0.001553	-1.650966	0.372000
0.001464	-1.662138	0.418000
0.001344	-1.677175	0.464000
0.001398	-1.699482	0.511000
0.001589	-1.720097	0.557000
0.001809	-1.735586	0.603000
0.001816	-1.745539	0.649000
0.001971	-1.757810	0.696000
0.081640	-1.762481	0.742000
0.113293	-1.754019	0.902000
0.144041	-1.757486	0.949000
0.246759	-1.792214	0.995000
0.276870	-1.803165	1.150000
0.307700	-1.808620	1.196000
0.338844	-1.813528	1.243000
0.370466	-1.813318	1.289000
0.401238	-1.811962	1.336000
0.432863	-1.801579	1.382000
0.463808	-1.784048	1.428000
0.494608	-1.755304	1.475000
0.524642	-1.720005	1.520000
0.554959	-1.691207	1.567000
0.586462	-1.670233	1.614000
0.617158	-1.657829	1.660000
0.648624	-1.650864	1.706000
0.679370	-1.649258	1.753000
0.710961	-1.647509	1.799000
0.815656	-1.647989	1.846000
0.846633	-1.650696	2.003000
0.877531	-1.649447	2.049000
0.979727	-1.662358	2.095000
1.011047	-1.687453	2.251000
1.041947	-1.708762	2.297000
1.073630	-1.731161	2.343000
1.104739	-1.748445	2.390000
1.136019	-1.752808	2.437000
1.166618	-1.761617	2.483000
1.197244	-1.769185	2.529000
1.228027	-1.783689	2.576000
1.258353	-1.806255	2.622000
1.289879	-1.832435	2.668000
1.320871	-1.851153	2.715000
1.352416	-1.859119	2.761000
1.383249	-1.857018	2.808000
1.413926	-1.852604	2.854000
1.444671	-1.843503	2.900000
1.690474	-1.829860	2.947000
1.722259	-1.630215	3.315000
1.752785	-1.586697	3.361000
1.782986	-1.556915	3.406000
1.812963	-1.537070	3.453000
1.844090	-1.527548	3.500000
1.875151	-1.526192	3.546000
1.906328	-1.527306	3.593000
1.937494	-1.524090	3.639000
1.968533	-1.520139	3.685000
2.000029	-1.529367	3.731000
2.029111	-1.540318	3.776000
2.060446	-1.543387	3.823000
2.090877	-1.554523	3.869000
2.122080	-1.576409	3.916000
2.152405	-1.593355	3.963000
2.184408	-1.606789	4.009000
2.288918	-1.612114	4.055000
2.319405	-1.625644	4.211000
2.350128	-1.609064	4.257000
2.594676	-1.658697	4.303000
2.624000	-1.639936	4.670000
2.655522	-1.613656	4.716000
2.686336	-1.579312	4.763000
2.718283	-1.529837	4.809000
2.748511	-1.476708	4.856000
2.780217	-1.440386	4.902000
2.811111	-1.410634	4.949000
2.842484	-1.380228	4.995000
2.872214	-1.348604	5.041000
2.903219	-1.332502	5.087000
3.015890	-1.325250	5.134000
3.047476	-1.308112	5.303000
3.077765	-1.313702	5.348000
3.180282	-1.343580	5.395000
3.211216	-1.357873	5.550000
3.242434	-1.373870	5.596000
3.273565	-1.387292	5.642000
3.304513	-1.399967	5.689000
3.335782	-1.416836	5.735000
3.366450	-1.436791	5.782000
3.397893	-1.453292	5.828000
3.428947	-1.453345	5.874000
3.459361	-1.451989	5.921000
3.489688	-1.455782	5.967000
3.520436	-1.452956	6.013000
3.551061	-1.448026	6.059000
3.581763	-1.432598	6.106000
3.613339	-1.410592	6.152000
3.645044	-1.386124	6.198000
3.750298	-1.370875	6.245000
3.781082	-1.409278	6.402000
3.811159	-1.439744	6.449000
3.914875	-1.551523	6.495000
3.945314	-1.578715	6.650000
3.976701	-1.597601	6.697000
4.007633	-1.609994	6.743000
4.038746	-1.623060	6.789000
4.069295	-1.634816	6.835000
4.100594	-1.650441	6.882000
4.130774	-1.672100	6.928000
4.161572	-1.696501	6.974000
4.192347	-1.722907	7.021000
4.223668	-1.748840	7.067000
4.254528	-1.775996	7.114000
4.285862	-2.008820	7.160000
4.316840	-1.783142	7.206000
4.348546	-1.859582	7.253000
4.379191	-1.864109	7.299000
4.483467	-1.875628	7.345000
4.513560	-1.903406	7.503000
4.543997	-1.915935	7.549000
4.647588	-1.978640	7.595000
4.679307	-2.001575	7.749000
4.710506	-2.020514	7.796000
4.740914	-2.038604	7.842000
4.770631	-2.053168	7.888000
4.802175	-2.073397	7.935000
4.833105	-2.095464	7.981000
4.864077	-2.117958	8.028000
4.894889	-2.142202	8.074000
4.926719	-2.165851	8.120000
4.957474	-2.185707	8.167000
4.988677	-2.203063	8.213000
5.019302	-2.219112	8.259000
5.051013	-2.232606	8.306000
5.080340	-2.246563	8.352000
5.110941	-2.256474	8.398000
5.358473	-2.265293	8.443000
5.388964	-2.272723	8.814000
5.419690	-2.268939	8.861000
5.450960	-2.265723	8.907000
5.481384	-2.266007	8.954000
5.513398	-2.269539	9.000000
5.544481	-2.274352	9.046000
5.575537	-2.280721	9.093000
5.605463	-2.284032	9.139000
5.637153	-2.287385	9.186000
5.667182	-2.287375	9.232000
5.697044	-2.290591	9.278000
5.727880	-2.293313	9.324000
5.759672	-2.296335	9.370000
5.790127	-2.300540	9.416000
5.821589	-2.305217	9.462000
5.852173	-2.309663	9.508000
5.954335	-2.314340	9.555000
5.986080	-2.327751	9.710000
6.017018	-2.330725	9.757000
6.261913	-2.397075	9.803000
6.293478	-2.405516	10.171000
6.324231	-2.411996	10.217000
6.356087	-2.413969	10.264000
6.387141	-2.407438	10.311000
6.418108	-2.402403	10.357000
6.448643	-2.393533	10.403000
6.479716	-2.380731	10.449000
6.509579	-2.366837	10.496000
6.539865	-2.358019	10.541000
6.571701	-2.346437	10.588000
6.684273	-2.338860	10.634000
6.715497	-2.249411	10.803000
6.746366	-2.215905	10.849000
6.848610	-2.126169	10.896000
6.880124	-2.107524	11.051000
6.910822	-2.100256	11.097000
6.942845	-2.093817	11.144000
6.973293	-2.087187	11.190000
7.004948	-2.079594	11.236000
7.034888	-2.073901	11.283000
7.066388	-2.067765	11.329000
7.096889	-2.063236	11.376000
7.127477	-2.063361	11.422000
7.158422	-2.060529	11.469000
7.189650	-2.059743	11.515000
7.221230	-2.060907	11.561000
7.251779	-2.067860	11.608000
7.283315	-2.071603	11.654000
7.314204	-2.078662	11.701000
7.417184	-2.076292	11.747000
7.447982	-2.086325	11.903000
7.479171	-2.077329	11.949000
7.583066	-2.019349	11.996000
7.613476	-2.008547	12.151000
7.645122	-2.004540	12.197000
7.676089	-1.995587	12.243000
7.707143	-1.979385	12.290000
7.736649	-1.971712	12.336000
7.768007	-1.970407	12.383000
7.798424	-1.966730	12.428000
7.829071	-1.961337	12.473000
7.859757	-1.954926	12.520000
7.890805	-1.952636	12.565000
7.921754	-1.951394	12.610000
7.951191	-1.948673	12.657000
7.980718	-1.950932	12.703000
8.012260	-1.951153	12.750000
8.043977	-1.952341	12.796000
8.151113	-1.948315	12.842000
8.181561	-1.931037	13.003000
8.212305	-1.919948	13.049000
8.316907	-1.905004	13.095000
8.347356	-1.900904	13.251000
8.377991	-1.891467	13.297000
8.408848	-1.870373	13.343000
8.439178	-1.844962	13.389000
8.470245	-1.812507	13.436000
8.500927	-1.777551	13.481000
8.532435	-1.744447	13.527000
8.562421	-1.714580	13.573000
8.594192	-1.681495	13.620000
8.625022	-1.661445	13.666000
8.654997	-1.652362	13.712000
8.684961	-1.662357	13.759000
8.716386	-1.683342	13.805000
8.748099	-1.709798	13.851000
8.778524	-1.735723	13.898000
9.025453	-1.760576	13.944000
9.056865	-1.788556	14.315000
9.087885	-1.806443	14.362000
9.118849	-1.832823	14.407000
9.150289	-1.861599	14.454000
9.180562	-1.887861	14.500000
9.211936	-1.916071	14.546000
9.242495	-1.947685	14.593000
9.273132	-1.980476	14.639000
9.303904	-2.016947	14.686000
9.335182	-2.049183	14.732000
9.365749	-2.079288	14.779000
9.396581	-2.102510	14.825000
9.428023	-2.126294	14.872000
9.459468	-2.152175	14.918000
9.489783	-2.180099	14.963000
9.519071	-2.205637	15.009000
9.623474	-2.225658	15.055000
9.653821	-2.253973	15.211000
9.684803	-2.253741	15.256000
9.929800	-2.283589	15.302000
9.960320	-2.286826	15.669000
9.990849	-2.286226	15.715000
10.020897	-2.281939	15.761000
10.051843	-2.272554	15.807000
10.082422	-2.256694	15.854000
10.113151	-2.235253	15.900000
10.145131	-2.209325	15.947000
10.175351	-2.182650	15.993000
10.207143	-2.159673	16.039000
10.237690	-2.144101	16.086000
10.350122	-2.140420	16.132000
10.381385	-2.143220	16.302000
10.412777	-2.132628	16.349000
10.516099	-2.122687	16.395000
10.547033	-2.117568	16.549000
10.577802	-2.111275	16.596000
10.608582	-2.104786	16.641000
10.638660	-2.103244	16.688000
10.669428	-2.103328	16.734000
10.700535	-2.106493	16.780000
10.732184	-2.112137	16.827000
10.762869	-2.112965	16.873000
10.793815	-2.113666	16.919000
10.824163	-2.113050	16.965000
10.855915	-2.116866	17.012000
10.886680	-2.126535	17.058000
10.917445	-2.132041	17.105000
10.946912	-2.135858	17.151000
10.978913	-2.136938	17.198000
11.084565	-2.135175	17.244000
11.115488	-2.108394	17.402000
11.146888	-2.098419	17.448000
11.250155	-2.069914	17.495000
11.280453	-2.061137	17.649000
11.310689	-2.059438	17.696000
11.341819	-2.060969	17.742000
11.372983	-2.064136	17.788000
11.404050	-2.068237	17.835000
11.435267	-2.078251	17.881000
11.466190	-2.087881	17.928000
11.497604	-2.100916	17.974000
11.528541	-2.116068	18.020000
11.559050	-2.128926	18.067000
11.589839	-2.147414	18.113000
11.620340	-2.162514	18.160000
11.651064	-2.172656	18.205000
11.682460	-2.186902	18.252000
11.713078	-2.197649	18.298000
11.818919	-2.210544	18.344000
11.850197	-2.261623	18.503000
11.880747	-2.272815	18.548000
11.983275	-2.324071	18.595000
12.012705	-2.340813	18.750000
12.044655	-2.355937	18.796000
12.075696	-2.369168	18.842000
12.106909	-2.382748	18.888000
12.137984	-2.396179	18.935000
12.169331	-2.411367	18.981000
12.200634	-2.427820	19.028000
12.231337	-2.439020	19.074000
12.260567	-2.454216	19.121000
12.291721	-2.468634	19.167000
12.323059	-2.483135	19.213000
12.353865	-2.502024	19.259000
12.385018	-2.516389	19.305000
12.415460	-2.532710	19.351000
12.447229	-2.547684	19.398000
12.693763	-2.558549	19.444000
12.724418	-2.597970	19.815000
12.755504	-2.589675	19.861000
12.786493	-2.580100	19.907000
12.817276	-2.573085	19.954000
12.846882	-2.567525	20.000000
12.878740	-2.564886	20.047000
12.909996	-2.564865	20.093000
12.940484	-2.566845	20.139000
12.971331	-2.570842	20.186000
13.002788	-2.576051	20.232000
13.034738	-2.583277	20.278000
13.065295	-2.590127	20.325000
13.095787	-2.599919	20.371000
13.125900	-2.608277	20.417000
13.155805	-2.615370	20.462000
13.186727	-2.622385	20.509000
13.291164	-2.629046	20.556000
13.322216	-2.649539	20.712000
13.353517	-2.656078	20.758000
13.599216	-2.658796	20.804000
13.629688	-2.652523	21.171000
13.660302	-2.644598	21.218000
13.690004	-2.637411	21.264000
13.720826	-2.628981	21.310000
13.752219	-2.620840	21.356000
13.783403	-2.611662	21.403000
13.814576	-2.600159	21.449000
13.845937	-2.587682	21.496000
13.876644	-2.575558	21.542000
13.907168	-2.565185	21.588000
14.019157	-2.554793	21.635000
14.049709	-2.506207	21.803000
14.080884	-2.488211	21.849000
14.185117	-2.434143	21.896000
14.216011	-2.420920	22.051000
14.245985	-2.407321	22.097000
14.276201	-2.395192	22.144000
14.307618	-2.378197	22.190000
14.339233	-2.362527	22.237000
14.370075	-2.346457	22.282000
14.400292	-2.328054	22.329000
14.432371	-2.308064	22.375000
14.463519	-2.290000	22.422000
14.494599	-2.272112	22.468000
14.524077	-2.256735	22.515000
14.555511	-2.238857	22.561000
14.585634	-2.220465	22.607000
14.617181	-2.201452	22.653000
14.647755	-2.179481	22.700000
14.752557	-2.156673	22.746000
14.784238	-2.023510	22.903000
14.814930	-1.960885	22.949000
14.917786	-1.866127	22.996000
14.948200	-1.861043	23.151000
14.978921	-1.865780	23.197000
15.010681	-1.872696	23.243000
15.042274	-1.874335	23.289000
15.073357	-1.869680	23.336000
15.104097	-1.860328	23.383000
15.135833	-1.850606	23.429000
15.167302	-1.845834	23.475000
15.197075	-1.852761	23.522000
15.225969	-1.862987	23.568000
15.257975	-1.874220	23.613000
15.288685	-1.881271	23.660000
15.320099	-1.883206	23.706000
15.350555	-1.878108	23.753000
15.382961	-1.864803	23.799000
15.487574	-1.851795	23.845000
15.518388	-1.795532	24.003000
15.548638	-1.765305	24.049000
15.651408	-1.695652	24.096000
15.682728	-1.687389	24.250000
15.714012	-1.681696	24.296000
15.744587	-1.667286	24.343000
15.775849	-1.639619	24.389000
15.806040	-1.609009	24.435000
15.837286	-1.581902	24.482000
15.867763	-1.552644	24.528000
15.898679	-1.508868	24.575000
15.929156	-1.473229	24.620000
15.961057	-1.454795	24.667000
15.991957	-1.448477	24.714000
16.023334	-1.443443	24.760000
16.053268	-1.429489	24.806000
16.084904	-1.399651	24.851000
16.114668	-1.361730	24.898000
16.362763	-1.334161	24.944000
16.393791	-1.275845	25.315000
16.423552	-1.266070	25.362000
16.454173	-1.253590	25.408000
16.485387	-1.235387	25.454000
16.515923	-1.217409	25.500000
16.547114	-1.200651	25.546000
16.578153	-1.180192	25.593000
16.609555	-1.165709	25.639000
16.640224	-1.153723	25.686000
16.671255	-1.143153	25.732000
16.701415	-1.134429	25.778000
16.732264	-1.119695	25.824000
16.762702	-1.101055	25.871000
16.794431	-1.083378	25.917000
16.825023	-1.077250	25.963000
16.856550	-1.071501	26.010000
16.960422	-1.064659	26.056000
16.991154	-1.001367	26.212000
17.021473	-0.987097	26.258000
17.266837	-0.905267	26.305000
17.297019	-0.915493	26.672000
17.328512	-0.927369	26.719000
17.358923	-0.940632	26.765000
17.390646	-0.953561	26.812000
17.421351	-0.967465	26.858000
17.452740	-0.982043	26.904000
17.483418	-0.999227	26.951000
17.515318	-1.013054	26.997000
17.546309	-1.017732	27.044000
17.575867	-1.033034	27.090000
17.687725	-1.047980	27.136000
17.718536	-1.094971	27.303000
17.749792	-1.102810	27.349000
17.851755	-1.104829	27.396000
17.882404	-1.106217	27.550000
17.913090	-1.098838	27.595000
17.943797	-1.080267	27.640000
17.974639	-1.062232	27.686000
18.004811	-1.050712	27.732000
18.034604	-1.042977	27.778000
18.064518	-1.026339	27.823000
18.095367	-1.003586	27.869000
18.126331	-0.971785	27.915000
18.157222	-0.935273	27.961000
18.188331	-0.897292	28.007000
18.219526	-0.851579	28.054000
18.250793	-0.801211	28.100000
18.280213	-0.740827	28.146000
18.310238	-0.677963	28.192000
18.420938	-0.623615	28.239000
18.451729	-0.646044	28.403000
18.482617	-0.667127	28.449000
18.585763	-0.651121	28.496000
18.616653	-0.634715	28.650000
18.648143	-0.619801	28.697000
18.679509	-0.605097	28.743000
18.710245	-0.591771	28.789000
18.740656	-0.575606	28.835000
18.770574	-0.559024	28.881000
18.801607	-0.547663	28.928000
18.833190	-0.536238	28.975000
18.863976	-0.527367	29.021000
18.895378	-0.521871	29.067000
18.926356	-0.519339	29.113000
18.957737	-0.517877	29.160000
18.988542	-0.517457	29.206000
19.018701	-0.526338	29.252000
19.049327	-0.534042	29.299000
19.153932	-0.535965	29.345000
19.185071	-0.558698	29.503000
19.216531	-0.556070	29.549000
19.320089	-0.503362	29.596000
19.351018	-0.478989	29.750000
19.381089	-0.454180	29.796000
19.411900	-0.428875	29.843000
19.442378	-0.407787	29.889000
19.473028	-0.389781	29.934000
19.503740	-0.367171	29.981000
19.535258	-0.336076	30.027000
19.566428	-0.295892	30.073000
19.597525	-0.254020	30.120000
19.628414	-0.220061	30.166000
19.659605	-0.187510	30.213000
19.690089	-0.156559	30.259000
19.720629	-0.130108	30.305000
19.750472	-0.107027	30.352000
19.782268	-0.089024	30.398000
20.029425	-0.075939	30.445000
20.060259	-0.006216	30.815000
20.091075	-0.032225	30.862000
20.122795	-0.070663	30.908000
20.153836	-0.106764	30.955000
20.185096	-0.137896	31.001000
20.215361	-0.167036	31.047000
20.247059	-0.200722	31.094000
20.277818	-0.215699	31.140000
20.308260	-0.223318	31.186000
20.338244	-0.218505	31.233000
20.369608	-0.209572	31.279000
20.400970	-0.209498	31.326000
20.432413	-0.208730	31.372000
20.463141	-0.206051	31.418000
20.494432	-0.195834	31.465000
20.525179	-0.181330	31.511000
20.628255	-0.168718	31.558000
20.658783	-0.141571	31.713000
20.688846	-0.126355	31.759000
20.933868	-0.056097	31.805000
20.965591	-0.056002	32.172000
20.996419	-0.056831	32.219000
21.027639	-0.048465	32.265000
21.059343	-0.038229	32.312000
21.089660	-0.034028	32.358000
21.120507	-0.040868	32.404000
21.150466	-0.039942	32.450000
21.180762	-0.034133	32.497000
21.212051	-0.029751	32.543000
21.243807	-0.032790	32.590000
21.356043	-0.034575	32.636000
21.385813	0.023945	32.803000
21.417155	0.040952	32.850000
21.519939	0.043165	32.896000
21.551746	0.040019	33.051000
21.582513	0.044037	33.098000
21.613602	0.043858	33.144000
21.644111	0.046050	33.190000
21.674772	0.050549	33.236000
21.705988	0.057637	33.282000
21.736397	0.061538	33.329000
21.766695	0.076329	33.374000
21.798093	0.082254	33.421000
21.829432	0.069270	33.468000
21.860496	0.055382	33.514000
21.891422	0.040367	33.560000
21.922383	0.024594	33.607000
21.953503	0.009912	33.653000
21.982619	-0.009876	33.699000
22.088111	-0.028031	33.745000
22.118889	-0.089496	33.903000
22.150422	-0.098913	33.950000
22.254402	-0.124705	33.996000
22.284854	-0.134627	34.150000
22.315132	-0.142769	34.196000
22.343611	-0.155181	34.241000
22.375121	-0.175697	34.287000
22.406072	-0.202078	34.333000
22.436890	-0.227954	34.378000
22.467647	-0.245800	34.425000
22.498873	-0.263605	34.470000
22.529568	-0.272581	34.517000
22.559566	-0.279649	34.563000
22.589278	-0.296375	34.609000
22.620429	-0.318490	34.655000
22.652353	-0.338311	34.702000
22.683249	-0.349930	34.748000
22.713802	-0.352834	34.794000
22.821355	-0.350067	34.841000
22.852993	-0.358173	35.003000
22.884478	-0.380122	35.049000
22.986680	-0.449473	35.096000
23.017273	-0.477319	35.249000
23.047900	-0.505275	35.296000
23.078904	-0.528955	35.342000
23.110347	-0.554179	35.389000
23.141788	-0.584697	35.435000
23.171974	-0.606296	35.482000
23.202833	-0.617058	35.527000
23.234658	-0.619569	35.574000
23.264961	-0.612885	35.620000
23.294420	-0.603573	35.666000
23.325966	-0.583594	35.713000
23.357556	-0.556932	35.759000
23.388242	-0.526432	35.806000
23.419295	-0.490760	35.852000
23.450334	-0.451695	35.899000
23.697449	-0.410200	35.945000
23.728149	-0.214784	36.315000
23.759703	-0.170673	36.362000
23.790510	-0.126534	36.408000
23.821845	-0.087016	36.454000
23.852644	-0.053194	36.501000
23.882840	-0.019744	36.547000
23.913550	0.005581	36.594000
23.944684	0.027121	36.640000
23.975508	0.046165	36.687000
24.005950	0.056569	36.732000
24.037339	0.065157	36.779000
24.069112	0.078992	36.826000
24.099832	0.092794	36.871000
24.130324	0.081740	36.918000
24.161755	0.058120	36.965000
24.192491	0.035416	37.011000
24.295887	0.028348	37.058000
24.326834	0.021428	37.213000
24.358133	0.012293	37.259000
24.601950	-0.071935	37.305000
24.633462	-0.074992	37.672000
24.664743	-0.073447	37.719000
24.695915	-0.071409	37.765000
24.725064	-0.057093	37.812000
24.757060	-0.032319	37.858000
24.787434	-0.002924	37.904000
24.818481	0.009115	37.951000
24.849532	-0.003815	37.997000
24.880711	-0.070810	38.043000
24.911793	-0.166080	38.090000
25.022120	-0.271407	38.136000
25.053017	-0.467364	38.303000
25.084006	-0.504560	38.349000
25.188138	-0.570193	38.395000
25.218443	-0.567200	38.550000
25.250168	-0.551656	38.597000
25.280049	-0.520703	38.643000
25.310810	-0.486934	38.690000
25.341344	-0.457349	38.735000
25.372170	-0.427912	38.781000
25.404001	-0.389353	38.828000
25.434323	-0.330319	38.875000
25.466227	-0.281493	38.921000
25.497443	-0.255363	38.968000
25.528511	-0.215205	39.014000
25.558150	-0.165420	39.061000
25.589814	-0.109361	39.107000
25.619821	-0.051893	39.154000
25.651060	0.003180	39.200000
25.756249	0.055845	39.246000
25.786600	0.212072	39.402000
25.818124	0.253995	39.449000
25.920024	0.372095	39.495000
25.951120	0.413047	39.650000
25.982137	0.439527	39.696000
26.013220	0.441876	39.742000
26.043867	0.435321	39.788000
26.074982	0.438865	39.835000
26.106340	0.468395	39.881000
26.137402	0.506497	39.928000
26.167780	0.537957	39.974000
26.198893	0.561478	40.020000
26.229406	0.577535	40.066000
26.259692	0.606771	40.113000
26.290873	0.648597	40.159000
26.321718	0.681588	40.205000
26.353144	0.716073	40.251000
26.383420	0.742703	40.298000
26.490159	0.763543	40.344000
26.521312	0.763218	40.503000
26.551930	0.756081	40.548000
26.654518	0.698111	40.596000
26.685380	0.694296	40.750000
26.716859	0.690839	40.797000
26.746919	0.681516	40.843000
26.779113	0.668190	40.890000
26.809843	0.658300	40.936000
26.840886	0.653907	40.982000
26.871066	0.655545	41.028000
26.901216	0.656743	41.074000
26.932526	0.668021	41.121000
26.963364	0.685405	41.167000
26.994897	0.707654	41.214000
27.025746	0.726413	41.260000
27.056873	0.738320	41.307000
27.088245	0.744133	41.353000
27.119229	0.738782	41.400000
27.365643	0.721160	41.446000
27.396922	0.498358	41.816000
27.427420	0.490661	41.862000
27.456503	0.488930	41.908000
27.487792	0.488038	41.954000
27.518993	0.483183	42.001000
27.549944	0.479649	42.047000
27.581018	0.482408	42.093000
27.612134	0.482827	42.140000
27.643573	0.495946	42.186000
27.674441	0.521138	42.233000
27.705736	0.539175	42.279000
27.736564	0.546601	42.326000
27.766942	0.546790	42.372000
27.797390	0.548497	42.419000
27.828269	0.549599	42.465000
27.859399	0.555955	42.511000
27.963694	0.569316	42.557000
27.995068	0.600030	42.713000
28.025892	0.599136	42.760000
28.270767	0.590422	42.806000
28.301286	0.573317	43.174000
28.331974	0.558281	43.220000
28.362158	0.541533	43.266000
28.393384	0.524555	43.313000
28.424559	0.507621	43.359000
28.456029	0.487985	43.406000
28.486907	0.466687	43.452000
28.517919	0.444119	43.498000
28.549131	0.417283	43.545000
28.580866	0.388175	43.591000
28.689877	0.360271	43.637000
28.721081	0.279630	43.803000
28.752205	0.267806	43.849000
28.854406	0.254481	43.896000
28.884345	0.261395	44.050000
28.915697	0.259242	44.096000
28.946854	0.245367	44.142000
28.977768	0.222341	44.189000
29.008740	0.193090	44.235000
29.040429	0.158931	44.281000
29.071551	0.132348	44.328000
29.101772	0.109267	44.374000
29.131362	0.089499	44.420000
29.162865	0.082431	44.466000
29.193537	0.091953	44.513000
29.225197	0.111469	44.559000
29.255832	0.126149	44.606000
29.287300	0.128216	44.652000
29.318314	0.113565	44.698000
29.424237	0.111721	44.744000
29.455235	0.141241	44.903000
29.485197	0.151139	44.949000
29.587483	0.167309	44.996000
29.618810	0.149314	45.149000
29.650130	0.123402	45.196000
29.680810	0.096189	45.243000
29.711778	0.079189	45.289000
29.743782	0.066373	45.335000
29.774454	0.059169	45.382000
29.805378	0.055593	45.429000
29.835000	0.053528	45.475000
29.866346	0.050158	45.521000
29.896936	0.048188	45.567000
29.928502	0.044286	45.613000
29.958504	0.037134	45.659000
29.990473	0.030476	45.706000
30.021729	0.020807	45.753000
30.050116	0.008235	45.799000
30.154635	-0.004382	45.845000
30.183719	-0.039785	46.003000
30.215811	-0.042580	46.050000
30.319672	-0.062487	46.096000
30.350863	-0.063916	46.251000
30.381699	-0.060479	46.297000
30.412260	-0.054132	46.344000
30.443105	-0.043232	46.390000
30.473766	-0.030244	46.436000
30.504229	-0.015268	46.483000
30.534527	-0.004498	46.528000
30.566647	-0.002829	46.575000
30.597746	-0.011587	46.622000
30.629417	-0.023770	46.668000
30.659669	-0.035697	46.715000
30.691638	-0.037861	46.762000
30.722735	-0.034007	46.808000
30.753630	-0.034038	46.855000
30.782139	-0.030462	46.901000
31.028736	-0.023027	46.947000
31.059877	-0.082959	47.315000
31.090730	-0.097778	47.362000
31.122551	-0.113985	47.408000
31.153189	-0.132073	47.455000
31.184065	-0.149337	47.501000
31.215871	-0.163631	47.548000
31.245719	-0.170757	47.594000
31.277367	-0.173690	47.640000
31.307553	-0.176381	47.686000
31.338243	-0.178714	47.732000
31.367565	-0.183464	47.778000
31.399501	-0.188487	47.825000
31.430137	-0.197872	47.871000
31.461684	-0.205430	47.917000
31.492064	-0.214091	47.964000
31.523804	-0.225619	48.010000
31.626995	-0.226303	48.056000
31.657740	-0.140541	48.212000
31.688962	-0.102865	48.259000
31.933275	0.025821	48.305000
31.963707	0.038594	48.672000
31.995455	0.044498	48.717000
32.026525	0.049699	48.765000
32.057267	0.058591	48.811000
32.087645	0.068407	48.857000
32.119539	0.079527	48.903000
32.150048	0.093275	48.949000
32.179593	0.105702	48.995000
32.210254	0.120434	49.042000
32.241760	0.134591	49.087000
32.355356	0.151464	49.135000
32.386697	0.217685	49.303000
32.417066	0.232408	49.350000
32.519774	0.277855	49.395000
32.550908	0.293795	49.551000
32.581657	0.312157	49.596000
32.612748	0.331906	49.643000
32.643605	0.356173	49.690000
32.674242	0.385874	49.736000
32.705399	0.418815	49.782000
32.735729	0.441603	49.827000
32.766021	0.451880	49.874000
32.797201	0.466698	49.921000
32.828442	0.484694	49.968000
32.859779	0.501507	50.014000
32.891058	0.512182	50.061000
32.921538	0.517549	50.107000
32.952764	0.518903	50.154000
32.984327	0.519008	50.200000
33.088043	0.522353	50.246000
33.118972	0.576077	50.403000
33.149168	0.586111	50.450000
33.253825	0.618886	50.496000
33.285507	0.652360	50.651000
33.316211	0.695620	50.698000
33.347286	0.721874	50.744000
33.378312	0.726801	50.791000
33.408124	0.728566	50.837000
33.439138	0.733884	50.884000
33.469603	0.739539	50.930000
33.500982	0.739958	50.976000
33.532012	0.739192	51.023000
33.563476	0.757815	51.069000
33.594482	0.783923	51.115000
33.624943	0.801085	51.162000
33.656561	0.811354	51.208000
33.687268	0.823451	51.255000
33.717333	0.845671	51.300000
33.821513	0.873420	51.347000
33.852992	0.932054	51.503000
33.884183	0.933018	51.550000
33.987138	0.999179	51.596000
34.018674	1.014342	51.750000
34.048986	1.017371	51.796000
34.079500	1.023079	51.844000
34.109915	1.048611	51.890000
34.141506	1.081938	51.937000
34.172847	1.100342	51.983000
34.203969	1.100216	52.029000
34.234806	1.082138	52.075000
34.266158	1.058848	52.122000
34.296643	1.038711	52.168000
34.327542	1.015695	52.214000
34.356270	0.985955	52.260000
34.388241	0.953771	52.307000
34.419144	0.917924	52.353000
34.450704	0.882616	52.399000
34.696305	0.845871	52.446000
34.727565	0.767137	52.815000
34.758345	0.763186	52.860000
34.789160	0.758130	52.906000
34.819022	0.759497	52.951000
34.849509	0.756091	52.997000
34.879498	0.742658	53.043000
34.910370	0.734009	53.089000
34.940908	0.736133	53.135000
34.972598	0.751256	53.182000
35.003528	0.775293	53.228000
35.034281	0.803344	53.274000
35.064819	0.825531	53.320000
35.096271	0.851385	53.367000
35.126352	0.869214	53.413000
35.157055	0.869781	53.460000
35.188027	0.850421	53.506000
35.291639	0.832592	53.552000
35.323218	0.847716	53.707000
35.353901	0.868019	53.753000
35.599077	0.952586	53.800000
35.630106	0.952597	54.167000
35.659534	0.950949	54.213000
35.690560	0.949441	54.259000
35.721305	0.946966	54.306000
35.752289	0.946419	54.353000
35.783672	0.944638	54.399000
35.815066	0.943621	54.445000
35.846096	0.941167	54.492000
35.876645	0.939751	54.538000
35.908320	0.935428	54.585000
36.022500	0.932546	54.631000
36.052658	0.925686	54.803000
36.083991	0.926692	54.850000
36.187337	0.957965	54.896000
36.218724	0.974639	55.050000
36.249201	0.993391	55.097000
36.280549	1.003289	55.143000
36.310934	1.005805	55.189000
36.341348	1.013367	55.236000
36.371698	1.027640	55.282000
36.403623	1.051333	55.329000
36.435021	1.083305	55.375000
36.465936	1.098639	55.422000
36.497618	1.093930	55.468000
36.528610	1.084650	55.515000
36.560166	1.088277	55.561000
36.589747	1.118062	55.608000
36.620692	1.154626	55.654000
36.650707	1.177073	55.700000
36.756048	1.190884	55.747000
36.786897	1.257139	55.903000
36.817826	1.267712	55.949000
36.921346	1.255048	55.996000
36.950474	1.260550	56.150000
36.982233	1.269026	56.197000
37.012859	1.264985	56.242000
37.044342	1.253882	56.289000
37.074634	1.249550	56.336000
37.106198	1.239241	56.382000
37.137339	1.228404	56.429000
37.168434	1.219964	56.475000
37.199398	1.237223	56.521000
37.230735	1.260802	56.568000
37.260997	1.279217	56.614000
37.291704	1.303861	56.661000
37.321903	1.320744	56.707000
37.353079	1.328065	56.753000
37.384551	1.318816	56.799000
37.490121	1.297171	56.845000
37.520736	1.194552	57.003000
37.551270	1.165817	57.049000
37.653483	1.078523	57.096000
37.684870	1.046688	57.250000
37.716426	1.033857	57.297000
37.747471	1.031153	57.343000
37.777870	1.032159	57.390000
37.809307	1.030157	57.436000
37.840379	1.024828	57.482000
37.871109	1.022763	57.529000
37.901236	1.020235	57.575000
37.932473	1.015664	57.621000
37.963115	1.000740	57.668000
37.994121	1.008228	57.714000
38.025024	1.020843	57.761000
38.055965	1.037401	57.807000
38.087356	1.049010	57.853000
38.118032	1.057166	57.899000
38.364863	1.071723	57.945000
38.396216	1.114931	58.316000
38.427318	1.154744	58.362000
38.458194	1.202529	58.408000
38.488352	1.223119	58.455000
38.518713	1.222340	58.501000
38.550012	1.200700	58.548000
38.580358	1.176316	58.594000
38.611779	1.164998	58.640000
38.642985	1.167099	58.687000
38.674299	1.172218	58.733000
38.705064	1.161875	58.780000
38.735348	1.162296	58.825000
38.766359	1.165586	58.872000
38.796201	1.173333	58.917000
38.826397	1.172260	58.962000
38.857300	1.158671	59.008000
38.962502	1.142520	59.055000
38.992794	1.127122	59.210000
39.024308	1.111956	59.257000
39.268730	0.857647	59.304000
39.299471	0.818122	59.671000
39.329314	0.778405	59.717000
39.360782	0.746150	59.764000
39.391949	0.717291	59.810000
39.422722	0.696640	59.857000
39.453417	0.679171	59.903000
39.485031	0.666022	59.949000
39.516010	0.654231	59.996000
39.547320	0.645529	60.042000
39.577459	0.635807	60.088000
39.689069	0.625969	60.134000
39.721113	0.616530	60.303000
39.751716	0.609603	60.350000
39.856165	0.530889	60.396000
39.885996	0.508950	60.551000
39.916292	0.494426	60.598000
39.947064	0.485437	60.644000
39.978170	0.477885	60.689000
40.009442	0.456745	60.736000
40.039811	0.427257	60.782000
40.071797	0.398207	60.828000
40.102542	0.381565	60.875000
40.133580	0.371874	60.921000
40.162558	0.368090	60.967000
40.193906	0.360345	61.013000
40.224356	0.347995	61.059000
40.255800	0.331011	61.106000
40.285774	0.329487	61.152000
40.317472	0.344863	61.198000
40.423888	0.377340	61.244000
40.454840	0.484473	61.402000
40.485951	0.505374	61.450000
40.587507	0.506643	61.496000
40.618859	0.490218	61.650000
40.649823	0.470923	61.697000
40.681164	0.452573	61.744000
40.712494	0.439622	61.790000
40.744019	0.436359	61.837000
40.775383	0.435206	61.883000
40.806093	0.423607	61.930000
40.836965	0.416309	61.976000
40.866385	0.419025	62.021000
40.897258	0.423011	62.068000
40.928114	0.426629	62.114000
40.959751	0.426230	62.161000
40.990043	0.422569	62.207000
41.021814	0.415744	62.254000
41.052901	0.409934	62.300000
41.157477	0.404522	62.346000
41.188841	0.438027	62.503000
41.218161	0.450097	62.550000
41.322564	0.457469	62.596000
41.352794	0.464379	62.751000
41.384727	0.483044	62.797000
41.415361	0.508835	62.844000
41.447151	0.549292	62.890000
41.477347	0.584339	62.937000
41.507989	0.599407	62.983000
41.538519	0.604758	63.029000
41.569260	0.604053	63.076000
41.600428	0.596284	63.122000
41.631404	0.580942	63.169000
41.663179	0.569972	63.215000
41.693682	0.554788	63.261000
41.724708	0.537411	63.307000
41.755988	0.541985	63.353000
41.786890	0.560377	63.400000
42.033118	0.575541	63.447000
42.063022	0.875223	63.816000
42.094321	0.903402	63.863000
42.125001	0.914642	63.909000
42.155823	0.908622	63.954000
42.186142	0.896332	64.001000
42.217510	0.885562	64.047000
42.249242	0.872077	64.093000
42.279454	0.852760	64.140000
42.311259	0.828178	64.186000
42.341939	0.802263	64.232000
42.372450	0.777048	64.279000
42.402351	0.762230	64.325000
42.433868	0.760506	64.372000
42.464437	0.770134	64.418000
42.496012	0.784910	64.465000
42.527026	0.799361	64.511000
42.631533	0.818090	64.557000
42.662136	0.893743	64.713000
42.693235	0.893407	64.759000
42.937085	0.904983	64.805000
42.967861	0.873743	65.173000
42.999121	0.845030	65.219000
43.029997	0.815547	65.266000
43.061606	0.788032	65.312000
43.092786	0.761820	65.359000
43.123212	0.744236	65.405000
43.154903	0.735523	65.452000
43.185544	0.728135	65.498000
43.216036	0.713466	65.544000
43.245483	0.689377	65.590000
43.357907	0.666169	65.637000
43.389479	0.588042	65.804000
43.420082	0.573864	65.849000
43.521734	0.511152	65.895000
43.553033	0.487575	66.050000
43.584105	0.472023	66.097000
43.614631	0.457427	66.143000
43.646114	0.446752	66.189000
43.677366	0.435289	66.236000
43.708304	0.421594	66.282000
43.738646	0.404658	66.329000
43.769814	0.388185	66.375000
43.800102	0.378347	66.421000
43.830997	0.369656	66.468000
43.861908	0.366482	66.514000
43.893410	0.361018	66.560000
43.924436	0.351695	66.606000
43.954758	0.348762	66.653000
43.986161	0.350381	66.699000
44.091608	0.352872	66.745000
44.122642	0.345167	66.904000
44.152638	0.337653	66.949000
44.256641	0.350223	66.996000
44.287629	0.359020	67.152000
44.318193	0.372388	67.198000
44.350014	0.386147	67.244000
44.381025	0.396235	67.291000
44.412020	0.406064	67.337000
44.441163	0.416738	67.383000
44.472592	0.419308	67.429000
44.503223	0.416119	67.476000
44.534571	0.416580	67.522000
44.565028	0.408243	67.569000
44.597061	0.400819	67.615000
44.627756	0.400051	67.662000
44.659285	0.400409	67.708000
44.690153	0.398386	67.755000
44.721617	0.401836	67.801000
44.824472	0.404090	67.847000
44.855175	0.398741	68.004000
44.886489	0.397829	68.050000
44.990757	0.385517	68.096000
45.021314	0.384433	68.252000
45.053385	0.387440	68.298000
45.084695	0.393809	68.345000
45.114249	0.411243	68.391000
45.144376	0.422990	68.437000
45.176731	0.426627	68.484000
45.207346	0.420944	68.530000
45.238825	0.416508	68.577000
45.268814	0.409514	68.623000
45.301203	0.405497	68.669000
45.331080	0.408423	68.715000
45.362025	0.415228	68.761000
45.391161	0.412199	68.807000
45.423024	0.401563	68.853000
45.453428	0.398993	68.900000
45.699886	0.394430	68.946000
45.731100	0.342520	69.316000
45.762272	0.319892	69.362000
45.793221	0.299008	69.408000
45.824274	0.287566	69.455000
45.854255	0.288617	69.500000
45.886475	0.294394	69.547000
45.917132	0.305419	69.593000
45.947797	0.311515	69.640000
45.976982	0.313586	69.686000
46.008604	0.311189	69.732000
46.039633	0.304579	69.778000
46.070694	0.299050	69.825000
46.101178	0.291634	69.871000
46.133191	0.284833	69.917000
46.164320	0.284140	69.964000
46.195250	0.288050	70.009000
46.298028	0.294426	70.056000
46.328212	0.299692	70.212000
46.359791	0.299113	70.258000
46.604713	0.283361	70.304000
46.635612	0.285064	70.671000
46.666396	0.286840	70.717000
46.697287	0.291822	70.764000
46.728789	0.293668	70.811000
46.759665	0.299469	70.857000
46.789600	0.308120	70.903000
46.820276	0.316727	70.949000
46.851556	0.321372	70.995000
46.882708	0.330675	71.042000
46.913849	0.335593	71.089000
47.026043	0.343171	71.135000
47.055694	0.364822	71.304000
47.086984	0.363760	71.350000
47.190646	0.338915	71.396000
47.221848	0.338157	71.550000
47.253193	0.333575	71.597000
47.283139	0.329350	71.643000
47.314899	0.324158	71.689000
47.344922	0.320469	71.736000
47.374964	0.315960	71.782000
47.405825	0.314720	71.828000
47.437381	0.317538	71.875000
47.468456	0.321373	71.921000
47.499167	0.327427	71.967000
47.529974	0.334059	72.012000
47.561561	0.345767	72.059000
47.592149	0.362278	72.105000
47.622302	0.383730	72.152000
47.652702	0.405024	72.198000
47.758638	0.418490	72.245000
47.790232	0.482533	72.404000
47.821300	0.505804	72.450000
47.925080	0.589268	72.497000
47.956483	0.608898	72.652000
47.987816	0.608908	72.698000
48.017674	0.597479	72.745000
48.048139	0.599954	72.791000
48.078730	0.609726	72.837000
48.110332	0.629352	72.884000
48.140936	0.648207	72.930000
48.172634	0.663458	72.976000
48.203575	0.673526	73.023000
48.234624	0.677026	73.069000
48.265046	0.688629	73.115000
48.296610	0.704500	73.162000
48.326687	0.722325	73.208000
48.355969	0.749658	73.253000
48.387586	0.791583	73.300000
48.492903	0.828878	73.347000
48.524186	0.966331	73.504000
48.554993	0.979745	73.550000
48.658678	0.927907	73.597000
48.688954	0.912377	73.752000
48.719104	0.901911	73.798000
48.750545	0.896530	73.844000
48.781697	0.897024	73.890000
48.813080	0.900924	73.937000
48.843791	0.913309	73.983000
48.875059	0.925653	74.029000
48.905363	0.938281	74.075000
48.936200	0.946681	74.121000
48.966216	0.953602	74.167000
48.997241	0.951327	74.214000
49.027679	0.943807	74.260000
49.059378	0.933531	74.306000
49.090492	0.928589	74.353000
49.121410	0.927802	74.399000
49.368275	0.941563	74.445000
49.399739	1.163945	74.816000
49.429931	1.179395	74.862000
49.461960	1.190725	74.909000
49.492663	1.196517	74.955000
49.523885	1.195434	75.001000
49.553159	1.184566	75.048000
49.583942	1.173152	75.094000
49.614803	1.159784	75.140000
49.646516	1.156084	75.186000
49.677223	1.160718	75.233000
49.708195	1.168686	75.279000
49.739267	1.182548	75.325000
49.770489	1.192880	75.372000
49.800670	1.201099	75.418000
49.830996	1.202707	75.464000
49.861104	1.202939	75.510000
49.965995	1.199270	75.556000
49.997362	1.172112	75.713000
50.027812	1.161455	75.758000
50.272538	1.155172	75.805000
50.304201	1.150716	76.171000
50.334781	1.145103	76.218000
50.365058	1.137379	76.265000
50.395554	1.130169	76.311000
50.426576	1.123053	76.357000
50.457805	1.119143	76.403000
50.488166	1.118029	76.450000
50.519595	1.125545	76.496000
50.550732	1.128591	76.542000
50.582703	1.121077	76.589000
50.693130	1.102306	76.635000
50.724267	1.039762	76.804000
50.755758	1.040316	76.850000
50.858609	1.076230	76.896000
50.890372	1.098469	77.051000
50.921286	1.126616	77.098000
50.952001	1.155067	77.145000
50.982312	1.181529	77.191000
51.013453	1.208959	77.237000
51.044468	1.238242	77.284000
51.075194	1.266663	77.330000
51.106465	1.298576	77.376000
51.137556	1.335278	77.422000
51.168809	1.365180	77.468000
51.198851	1.375142	77.515000
51.230503	1.362491	77.562000
51.260323	1.360552	77.608000
51.291141	1.376129	77.653000
51.321564	1.398936	77.700000
51.426850	1.427239	77.747000
51.458675	1.495540	77.904000
51.489382	1.512409	77.950000
51.592847	1.578969	77.997000
51.623166	1.594385	78.152000
51.654038	1.611211	78.198000
51.684818	1.627702	78.245000
51.716397	1.647407	78.291000
51.747565	1.652884	78.338000
51.778606	1.630161	78.384000
51.809306	1.607775	78.431000
51.840654	1.613955	78.477000
51.872437	1.645254	78.524000
51.902487	1.678549	78.570000
51.932637	1.710224	78.616000
51.962817	1.715269	78.663000
51.994634	1.712541	78.709000
52.025537	1.710056	78.755000
52.057036	1.711135	78.801000
52.160574	1.723816	78.848000
52.192053	1.783244	79.004000
52.223313	1.802080	79.050000
52.324839	1.861183	79.095000
52.356202	1.876409	79.251000
52.386594	1.894498	79.297000
52.418304	1.910425	79.343000
52.449560	1.912811	79.390000
52.479814	1.909725	79.436000
52.509856	1.907459	79.482000
52.540214	1.919969	79.527000
52.571270	1.930679	79.574000
52.601973	1.942817	79.620000
52.632742	1.955934	79.666000
52.664063	1.976262	79.713000
52.695857	2.020463	79.759000
52.726111	2.069472	79.805000
52.757167	2.092447	79.850000
52.788297	2.094266	79.898000
53.036523	2.092962	79.944000
53.067395	1.977418	80.316000
53.097856	1.965993	80.363000
53.128317	1.945888	80.409000
53.159208	1.912685	80.455000
53.189708	1.871136	80.500000
53.220545	1.822416	80.547000
53.251586	1.771489	80.594000
53.283369	1.725149	80.640000
53.314203	1.684710	80.686000
53.344810	1.642648	80.733000
53.375517	1.600250	80.779000
53.406243	1.561483	80.825000
53.436581	1.523887	80.871000
53.467054	1.493765	80.918000
53.498552	1.473508	80.964000
53.529820	1.461153	81.010000
53.634707	1.452084	81.057000
53.665145	1.355812	81.213000
53.695890	1.326199	81.259000
53.938887	1.079069	81.305000
53.970128	1.027186	81.671000
54.000988	0.972761	81.717000
54.032149	0.912973	81.764000
54.062940	0.854270	81.810000
54.094438	0.801799	81.857000
54.125545	0.754556	81.903000
54.157012	0.711910	81.949000
54.187381	0.682659	81.996000
54.219041	0.668323	82.042000
54.248761	0.660988	82.089000
54.361308	0.649196	82.135000
54.392879	0.577889	82.304000
54.423359	0.554441	82.350000
54.526322	0.537013	82.397000
54.557555	0.526306	82.552000
54.588454	0.512045	82.599000
54.618911	0.497769	82.645000
54.649161	0.481231	82.691000
54.681727	0.460310	82.737000
54.712284	0.437061	82.784000
54.743379	0.426102	82.830000
54.773840	0.424016	82.876000
54.805469	0.426594	82.923000
54.836257	0.424487	82.969000
54.866776	0.425053	83.016000
54.896488	0.435960	83.061000
54.928643	0.440007	83.109000
54.959238	0.442797	83.155000
54.990383	0.446814	83.201000
55.095393	0.457992	83.247000
55.125151	0.523779	83.404000
55.157287	0.550216	83.450000
55.258574	0.621071	83.497000
55.290084	0.656973	83.651000
55.321102	0.687862	83.697000
55.351867	0.715284	83.743000
55.382866	0.737593	83.789000
55.413619	0.754378	83.834000
55.443988	0.774589	83.881000
55.473615	0.793885	83.927000
55.505294	0.811353	83.974000
55.535943	0.826929	84.020000
55.567292	0.837797	84.066000
55.597695	0.848647	84.113000
55.629528	0.860308	84.158000
55.660527	0.872883	84.205000
55.691291	0.887219	84.251000
55.720258	0.919582	84.297000
55.827511	0.952207	84.344000
55.858748	1.012423	84.504000
55.888960	1.020633	84.549000
55.993216	1.073666	84.596000
56.024338	1.095274	84.751000
56.055710	1.115181	84.797000
56.086067	1.130053	84.844000
56.116490	1.140878	84.890000
56.147174	1.144378	84.936000
56.177685	1.149392	84.982000
56.208330	1.152997	85.029000
56.239871	1.156997	85.075000
56.271281	1.175715	85.121000
56.301857	1.208276	85.168000
56.333697	1.251220	85.213000
56.364250	1.290688	85.260000
56.394850	1.328084	85.307000
56.424996	1.362084	85.353000
56.455964	1.394720	85.399000
56.703629	1.429659	85.446000
56.733517	1.586590	85.816000
56.764462	1.588331	85.862000
56.795308	1.588194	85.909000
56.826675	1.587922	85.955000
56.858331	1.589088	86.002000
56.888888	1.591012	86.048000
56.920448	1.596162	86.095000
56.951501	1.606872	86.140000
56.982454	1.621700	86.186000
57.012008	1.637204	86.233000
57.043111	1.657519	86.280000
57.073925	1.676153	86.326000
57.105181	1.701053	86.373000
57.136188	1.732637	86.419000
57.167986	1.766822	86.465000
57.198470	1.805438	86.512000
57.302339	1.838796	86.558000
57.332616	1.926673	86.714000
57.362842	1.950386	86.760000
57.607895	2.010334	86.806000
57.639324	2.011479	87.173000
57.670384	2.020946	87.220000
57.701287	2.033075	87.265000
57.731456	2.036038	87.312000
57.762931	2.028881	87.358000
57.793992	2.020453	87.403000
57.824445	2.029302	87.451000
57.854157	2.040495	87.497000
57.885037	2.059445	87.543000
57.916643	2.086582	87.589000
58.029628	2.112595	87.636000
58.059847	2.193738	87.803000
58.089978	2.204207	87.849000
58.193147	2.192177	87.895000
58.222936	2.177904	88.049000
58.254246	2.166452	88.095000
58.284673	2.158041	88.141000
58.315222	2.144735	88.187000
58.344673	2.132311	88.233000
58.375894	2.117155	88.278000
58.406963	2.105321	88.325000
58.438200	2.096555	88.372000
58.469264	2.084783	88.418000
58.500382	2.077584	88.465000
58.531192	2.067862	88.511000
58.562111	2.060138	88.557000
58.593367	2.057709	88.604000
58.623936	2.061188	88.650000
58.654258	2.074011	88.697000
58.761738	2.088220	88.743000
58.792388	2.171937	88.904000
58.823302	2.199297	88.949000
58.926264	2.281610	88.996000
58.957728	2.301199	89.151000
58.988412	2.323429	89.196000
59.018347	2.346814	89.242000
59.048009	2.377440	89.288000
59.080022	2.409759	89.335000
59.111094	2.442708	89.381000
59.142381	2.477892	89.428000
59.172561	2.512481	89.474000
59.204206	2.537937	89.520000
59.235074	2.556288	89.566000
59.266238	2.568717	89.612000
59.295869	2.584372	89.659000
59.326826	2.597681	89.705000
59.357425	2.610539	89.750000
59.388397	2.623929	89.797000
59.495309	2.641630	89.844000
59.526073	2.674363	90.004000
59.557714	2.679890	90.050000
59.660864	2.680783	90.097000
59.691417	2.679720	90.251000
59.722362	2.678482	90.297000
59.752505	2.676649	90.344000
59.783922	2.675896	90.391000
59.814645	2.677112	90.437000
59.846262	2.681883	90.483000
59.876919	2.683770	90.530000
59.908563	2.694014	90.576000
59.939466	2.707280	90.622000
59.970642	2.724960	90.668000
59.999482	2.751134	90.715000
60.030888	2.781858	90.761000
60.061430	2.812914	90.807000
60.089363	2.848460	90.853000
60.119394	2.884569	90.899000
60.367158	2.914249	90.945000
60.398111	3.159892	91.316000
60.429675	3.196763	91.363000
60.460055	3.229555	91.409000
60.491861	3.256765	91.454000
60.522180	3.277881	91.501000
60.553447	3.292658	91.547000
60.582683	3.303914	91.594000
60.614700	3.314756	91.641000
60.645338	3.332708	91.687000
60.676709	3.353171	91.734000
60.706655	3.373751	91.780000
60.739007	3.401087	91.826000
60.769706	3.427192	91.872000
60.800858	3.454497	91.919000
60.831296	3.479811	91.965000
60.862810	3.510161	92.012000
60.965991	3.539590	92.058000
60.996798	3.659585	92.214000
61.028116	3.702866	92.260000
61.272031	4.036369	92.307000
61.302911	4.083392	92.673000
61.334471	4.126452	92.719000
61.365719	4.157236	92.765000
61.396357	4.179179	92.812000
61.425704	4.197824	92.858000
61.456834	4.204686	92.904000
61.488405	4.208743	92.951000
61.519323	4.206063	92.997000
61.550314	4.202469	93.044000
61.581021	4.204077	93.089000
61.692531	4.208144	93.136000
61.723634	4.258445	93.304000
61.754610	4.283351	93.350000
61.858640	4.400096	93.397000
61.889443	4.444420	93.552000
61.920388	4.499845	93.597000
61.951210	4.559519	93.644000
61.981260	4.625215	93.690000
62.010661	4.693478	93.736000
62.042351	4.760859	93.783000
62.073665	4.827955	93.829000
62.104607	4.895783	93.875000
62.135555	4.963043	93.921000
62.166524	5.033902	93.967000
62.197622	5.104904	94.013000
62.228107	5.179336	94.060000
62.258057	5.255754	94.105000
62.288913	5.328122	94.152000
62.320293	5.405307	94.199000
62.426102	5.475426	94.244000
62.456409	5.710348	94.403000
62.487381	5.767606	94.449000
62.591803	5.869031	94.495000
62.620873	5.888023	94.651000
62.651957	5.910049	94.696000
62.683413	5.936335	94.743000
62.714408	5.963126	94.790000
62.745599	5.990494	94.836000
62.776967	6.022227	94.882000
62.807650	6.063428	94.929000
62.838738	6.109077	94.975000
62.869625	6.160190	95.022000
62.900601	6.215662	95.068000
62.929898	6.269318	95.114000
62.960474	6.322804	95.160000
62.991811	6.370590	95.207000
63.023102	6.409183	95.252000
63.054093	6.445285	95.299000
63.160021	6.477225	95.345000
63.191086	6.628477	95.504000
63.222161	6.691381	95.550000
63.324374	6.856597	95.597000
63.355850	6.895126	95.752000
63.387114	6.932961	95.798000
63.417509	6.967368	95.845000
63.448251	7.001831	95.891000
63.480033	7.033846	95.937000
63.510856	7.063723	95.983000
63.542051	7.093717	96.029000
63.571770	7.122809	96.076000
63.603149	7.152186	96.122000
63.633518	7.180225	96.169000
63.664379	7.215873	96.215000
63.695762	7.258817	96.261000
63.727429	7.301803	96.308000
63.757667	7.345283	96.354000
63.788543	7.383935	96.400000
64.034852	7.415409	96.446000
64.066934	7.778652	96.816000
64.097634	7.845834	96.862000
64.128778	7.914520	96.909000
64.158855	7.980276	96.955000
64.190381	8.041140	97.002000
64.220673	8.100758	97.049000
64.251679	8.157230	97.095000
64.282490	8.215113	97.141000
64.313973	8.270496	97.188000
64.345002	8.324921	97.234000
64.376166	8.384772	97.281000
64.407211	8.441142	97.327000
64.438537	8.500331	97.373000
64.468890	8.555635	97.419000
64.498679	8.604355	97.465000
64.529713	8.654614	97.512000
64.633478	8.705950	97.559000
64.665656	8.885665	97.715000
64.696797	8.946840	97.761000
64.942499	9.386809	97.808000
64.973010	9.440328	98.175000
65.004381	9.490882	98.222000
65.034992	9.541753	98.269000
65.065365	9.593686	98.315000
65.094831	9.645363	98.361000
65.127194	9.702304	98.407000
65.157943	9.758931	98.454000
65.189422	9.819341	98.500000
65.219564	9.879354	98.546000
65.251873	9.938689	98.593000
65.360940	9.997985	98.640000
65.391297	10.209256	98.803000
65.422284	10.281646	98.850000
65.526203	10.537737	98.896000
65.556414	10.625255	99.051000
65.586441	10.717414	99.097000
65.617552	10.801187	99.144000
65.649246	10.892426	99.190000
65.680034	10.982070	99.236000
65.710936	11.065573	99.282000
65.741071	11.148285	99.328000
65.772542	11.232982	99.374000
65.802531	11.317235	99.421000
65.834148	11.400983	99.467000
65.864513	11.491956	99.514000
65.895316	11.581658	99.560000
65.925197	11.669234	99.606000
65.956838	11.755708	99.652000
65.987940	11.842445	99.698000
66.094433	11.929301	99.745000
66.125712	12.230582	99.904000
66.156346	12.320781	99.950000
66.258721	12.622289	99.997000
66.289393	12.715530	100.152000
66.321256	12.810421	100.198000
66.352136	12.910598	100.245000
66.383177	13.005736	100.290000
66.413804	13.106937	100.337000
66.445014	13.209766	100.384000
66.476708	13.309985	100.430000
66.507050	13.409310	100.476000
66.537599	13.506578	100.522000
66.567826	13.600329	100.569000
66.599390	13.692165	100.616000
66.629778	13.787227	100.662000
66.661242	13.864326	100.708000
66.692291	13.942253	100.754000
66.723447	14.019388	100.801000
66.828249	14.095845	100.847000
66.858391	14.384072	101.003000
66.888649	14.480600	101.050000
66.991907	14.848142	101.096000
67.023501	14.969682	101.251000
67.054658	15.094439	101.296000
67.085737	15.219000	101.344000
67.116356	15.344359	101.390000
67.147382	15.463023	101.437000
67.177416	15.575236	101.483000
67.207689	15.678845	101.529000
67.238600	15.775480	101.575000
67.269879	15.862911	101.621000
67.301366	15.944771	101.667000
67.332153	16.026557	101.714000
67.363256	16.115705	101.760000
67.394205	16.203208	101.807000
67.425139	16.288716	101.853000
67.455373	16.369540	101.899000
67.702919	16.460598	101.946000
67.734029	17.528312	102.316000
67.764740	17.710700	102.363000
67.794897	17.902250	102.409000
67.825362	18.066961	102.455000
67.856887	18.204141	102.501000
67.888059	18.333930	102.547000
67.918854	18.468679	102.594000
67.950249	18.626814	102.640000
67.981498	18.795226	102.687000
68.012577	18.963019	102.734000
68.042612	19.138157	102.780000
68.072631	19.312132	102.826000
68.103933	19.475505	102.872000
68.134936	19.634361	102.919000
68.166208	19.790611	102.965000
68.197080	19.943693	103.012000
68.301806	20.092033	103.058000
68.332793	20.604753	103.214000
68.363757	20.771054	103.260000
68.607062	22.239146	103.307000
68.638087	22.438831	103.673000
68.668867	22.625201	103.720000
68.700400	22.784521	103.766000
68.731580	22.941780	103.812000
68.762813	23.113899	103.859000
68.793516	23.288264	103.905000
68.825425	23.451436	103.952000
68.856105	23.597022	103.998000
68.886916	23.739757	104.045000
68.916021	23.892711	104.091000
69.028153	24.050008	104.137000
69.059794	24.687804	104.304000
69.089682	24.865116	104.350000
69.192618	25.478622	104.396000
69.223690	25.675716	104.551000
69.254300	25.879198	104.597000
69.285826	26.062997	104.644000
69.316629	26.240117	104.690000
69.347946	26.420870	104.735000
69.377420	26.612005	104.782000
69.409199	26.804624	104.828000
69.439472	26.983675	104.875000
69.470475	27.150083	104.921000
69.500286	27.311705	104.968000
69.532334	27.477539	105.014000
69.562960	27.639449	105.060000
69.594877	27.808518	105.107000
69.625327	27.986246	105.153000
69.656798	28.161578	105.199000
69.762177	28.338376	105.246000
69.792918	28.905353	105.404000
69.822999	29.065819	105.450000
69.926296	29.600310	105.497000
69.957260	29.756789	105.651000
69.988409	29.922321	105.697000
70.019388	30.097160	105.743000
70.050821	30.289115	105.790000
70.080426	30.476459	105.836000
70.111820	30.659270	105.883000
70.141640	30.839534	105.929000
70.173019	31.019481	105.975000
70.203638	31.199974	106.021000
70.235086	31.376003	106.068000
70.266027	31.556609	106.114000
70.297414	31.735155	106.160000
70.327395	31.909199	106.206000
70.359135	32.078852	106.253000
70.389239	32.242758	106.299000
70.494556	32.406419	106.346000
70.525636	32.987107	106.504000
70.556193	33.159752	106.550000
70.660112	33.732045	106.597000
70.690830	33.901620	106.751000
70.721764	34.065675	106.797000
70.751752	34.227292	106.844000
70.782409	34.388241	106.890000
70.813320	34.558904	106.936000
70.845137	34.738054	106.982000
70.875848	34.940130	107.029000
70.907158	35.157962	107.075000
70.938499	35.385418	107.121000
70.969209	35.618155	107.168000
71.000773	35.855602	107.215000
71.030785	36.090761	107.261000
71.061419	36.325102	107.307000
71.091768	36.573193	107.354000
71.123355	36.823573	107.400000
71.370017	37.076733	107.446000
71.400712	38.949014	107.817000
71.431746	39.174060	107.863000
71.463171	39.402347	107.909000
71.494312	39.650924	107.955000
71.525461	39.899755	108.002000
71.556418	40.131680	108.048000
71.587720	40.361480	108.095000
71.617685	40.606575	108.141000
71.647966	40.869467	108.187000
71.679084	41.140146	108.234000
71.710117	41.412404	108.280000
71.740882	41.688994	108.326000
71.772515	41.951198	108.372000
71.803617	42.207286	108.418000
71.834420	42.450774	108.465000
71.864977	42.678331	108.512000
71.968743	42.897871	108.558000
71.998977	43.623410	108.714000
72.030156	43.843710	108.761000
72.275843	46.056893	108.807000
72.306753	46.374275	109.174000
72.337226	46.680404	109.220000
72.368835	46.971103	109.267000
72.400299	47.259615	109.313000
72.430933	47.550807	109.359000
72.459677	47.841242	109.404000
72.490718	48.108404	109.451000
72.521667	48.373356	109.497000
