Sample	2mm tape 2
date	08/01/2025
	
Temperature (K)	77.00
Angle (deg.)	0.000000
field / T	0.020000
	
		
Approx. trace time (s)	60.0	
		
Current / A	V1  -sample/ uV	time/s
0.001434	-1.581153	0.000000
0.001721	-1.709240	0.349000
0.001637	-1.760290	0.449000
0.001727	-1.719831	0.495000
0.001595	-1.714661	0.541000
0.001559	-1.791094	0.588000
0.001464	-1.803885	0.634000
0.001272	-1.722242	0.680000
0.001350	-1.721121	0.727000
0.029480	-1.765965	0.773000
0.060942	-1.753665	0.819000
0.092289	-1.679416	0.866000
0.123964	-1.711683	0.912000
0.154108	-1.751482	0.958000
0.185230	-1.717157	1.004000
0.215470	-1.652636	1.050000
0.318681	-1.688623	1.096000
0.350429	-1.582033	1.252000
0.381385	-1.607482	1.299000
0.625684	-1.448153	1.345000
0.656975	-1.408611	1.711000
0.687877	-1.377585	1.757000
0.719037	-1.457457	1.804000
0.749531	-1.516554	1.850000
0.779981	-1.494576	1.897000
0.810460	-1.519108	1.943000
0.841520	-1.619968	1.989000
0.872565	-1.671053	2.035000
0.903761	-1.631670	2.082000
0.934118	-1.671659	2.128000
1.042569	-1.748643	2.174000
1.074037	-1.771537	2.337000
1.104900	-1.779284	2.383000
1.207310	-1.798066	2.430000
1.237837	-1.770403	2.583000
1.268429	-1.735860	2.630000
1.299949	-1.796404	2.676000
1.330654	-1.813989	2.722000
1.361834	-1.735135	2.769000
1.392962	-1.718366	2.815000
1.423817	-1.790089	2.861000
1.455107	-1.814134	2.908000
1.485514	-1.747111	2.954000
1.515106	-1.749154	3.000000
1.546190	-1.805549	3.046000
1.577128	-1.804728	3.092000
1.608468	-1.729756	3.139000
1.639364	-1.749554	3.185000
1.670662	-1.770413	3.232000
1.777489	-1.728656	3.278000
1.808616	-1.765043	3.437000
1.839594	-1.713532	3.483000
1.941147	-1.755859	3.530000
1.971934	-1.686971	3.684000
2.003573	-1.720694	3.731000
2.034291	-1.735681	3.777000
2.065794	-1.667014	3.823000
2.096360	-1.658102	3.870000
2.128065	-1.717676	3.916000
2.159217	-1.721774	3.963000
2.189361	-1.650043	4.009000
2.218630	-1.670621	4.055000
2.250705	-1.713616	4.102000
2.281535	-1.684192	4.148000
2.312417	-1.615185	4.194000
2.343479	-1.653409	4.241000
2.374742	-1.694888	4.287000
2.405757	-1.658375	4.333000
2.555428	-1.606221	4.379000
2.673450	-1.592789	4.604000
2.704927	-1.640876	4.782000
2.736271	-1.665756	4.828000
2.767473	-1.599951	4.875000
2.796911	-1.576375	4.921000
2.826521	-1.635521	4.966000
2.857083	-1.657356	5.012000
2.888347	-1.584796	5.058000
2.919368	-1.586980	5.104000
2.950613	-1.654195	5.150000
2.981818	-1.672260	5.197000
3.013134	-1.611073	5.243000
3.043093	-1.640992	5.289000
3.073462	-1.675668	5.336000
3.104434	-1.639565	5.382000
3.135339	-1.555173	5.428000
3.385977	-1.575557	5.475000
3.416482	-1.480505	5.849000
3.446398	-1.498920	5.895000
3.477491	-1.454197	5.941000
3.508346	-1.489451	5.988000
3.538684	-1.553538	6.034000
3.570322	-1.551702	6.080000
3.601272	-1.489648	6.126000
3.632541	-1.531984	6.172000
3.663424	-1.580109	6.219000
3.694254	-1.551776	6.265000
3.724308	-1.507768	6.312000
3.755520	-1.567441	6.358000
3.785831	-1.610015	6.404000
3.817137	-1.563676	6.450000
3.848158	-1.538301	6.496000
3.878824	-1.598868	6.543000
3.983855	-1.620011	6.589000
4.013593	-1.590753	6.745000
4.044644	-1.545264	6.791000
4.289690	-1.313583	6.838000
4.320209	-1.321923	7.205000
4.351252	-1.393960	7.252000
4.383013	-1.373257	7.298000
4.414240	-1.296910	7.345000
4.445114	-1.313025	7.391000
4.476065	-1.366634	7.438000
4.507271	-1.362547	7.484000
4.538742	-1.305739	7.531000
4.569364	-1.361254	7.577000
4.598973	-1.406405	7.624000
4.711199	-1.368506	7.670000
4.742625	-1.334999	7.837000
4.773744	-1.260647	7.884000
4.875841	-1.212142	7.930000
4.906567	-1.210925	8.084000
4.938057	-1.274406	8.131000
4.969206	-1.267832	8.177000
5.000458	-1.167335	8.224000
5.031147	-1.170626	8.270000
5.062424	-1.211052	8.316000
5.093628	-1.189262	8.363000
5.123814	-1.127726	8.409000
5.154265	-1.176280	8.455000
5.184513	-1.220102	8.502000
5.215799	-1.183126	8.548000
5.246762	-1.149234	8.595000
5.278590	-1.217972	8.641000
5.309117	-1.264611	8.688000
5.340915	-1.220447	8.734000
5.445079	-1.219199	8.780000
5.475863	-1.187763	8.937000
5.506309	-1.241960	8.983000
5.609553	-1.246208	9.030000
5.640694	-1.306190	9.184000
5.670596	-1.308939	9.230000
5.702882	-1.265188	9.277000
5.733122	-1.327803	9.323000
5.763683	-1.394108	9.369000
5.792846	-1.378008	9.415000
5.824358	-1.339761	9.461000
5.855855	-1.395853	9.508000
5.886983	-1.430904	9.554000
5.918383	-1.375001	9.600000
5.949205	-1.343933	9.647000
5.979913	-1.394456	9.693000
6.010493	-1.400204	9.739000
6.041519	-1.317650	9.785000
6.071832	-1.296302	9.831000
6.177817	-1.337974	9.878000
6.208181	-1.282692	10.037000
6.240234	-1.293743	10.084000
6.343722	-1.221004	10.130000
6.374139	-1.206469	10.284000
6.406085	-1.139690	10.331000
6.436015	-1.183565	10.377000
6.466531	-1.235103	10.424000
6.496651	-1.208849	10.470000
6.528138	-1.169064	10.516000
6.558868	-1.233823	10.562000
6.590048	-1.278045	10.608000
6.620976	-1.239611	10.655000
6.651823	-1.225886	10.701000
6.683486	-1.293313	10.747000
6.713946	-1.321345	10.794000
6.743430	-1.256379	10.840000
6.774602	-1.258907	10.886000
6.805736	-1.312240	10.932000
7.052696	-1.303956	10.978000
7.083426	-1.258949	11.350000
7.114993	-1.233792	11.396000
7.146112	-1.305905	11.443000
7.177546	-1.344930	11.489000
7.207746	-1.299353	11.536000
7.239418	-1.314378	11.582000
7.270410	-1.395809	11.628000
7.301138	-1.426015	11.674000
7.329972	-1.384122	11.719000
7.361372	-1.435206	11.766000
7.392915	-1.510722	11.813000
7.423379	-1.513727	11.859000
7.454388	-1.470876	11.905000
7.485831	-1.529956	11.951000
7.516968	-1.580432	11.997000
7.547881	-1.541622	12.044000
7.651041	-1.490972	12.090000
7.680929	-1.432819	12.246000
7.712299	-1.436151	12.292000
7.957227	-1.326221	12.339000
7.988368	-1.332853	12.705000
8.019195	-1.247172	12.751000
8.049331	-1.189533	12.797000
8.080857	-1.242559	12.843000
8.111907	-1.271082	12.890000
8.141363	-1.203189	12.936000
8.171894	-1.186336	12.982000
8.203838	-1.219870	13.029000
8.234828	-1.201899	13.075000
8.265909	-1.118826	13.121000
8.379456	-1.134051	13.168000
8.409238	-1.065450	13.337000
8.440630	-1.106807	13.384000
8.543813	-1.091441	13.430000
8.575329	-1.125809	13.584000
8.605670	-1.062842	13.630000
8.636472	-1.023925	13.677000
8.667742	-1.051251	13.723000
8.698518	-1.027801	13.770000
8.728635	-0.933899	13.816000
8.759294	-0.926890	13.863000
8.790741	-0.967775	13.909000
8.822366	-0.945765	13.956000
8.853503	-0.874446	14.002000
8.884767	-0.901056	14.049000
8.916059	-0.931085	14.096000
8.946842	-0.885548	14.142000
8.978421	-0.820587	14.188000
9.008273	-0.860258	14.235000
9.111367	-0.880539	14.281000
9.142733	-0.842922	14.437000
9.174038	-0.832237	14.483000
9.277933	-0.909591	14.529000
9.308961	-0.866728	14.684000
9.339337	-0.879499	14.731000
9.369685	-0.958179	14.777000
9.399625	-0.963938	14.823000
9.430665	-0.890819	14.869000
9.461448	-0.911651	14.916000
9.492820	-0.969603	14.962000
9.524377	-0.958756	15.008000
9.555873	-0.902821	15.055000
9.585841	-0.961258	15.101000
9.616679	-1.015401	15.147000
9.646923	-0.986387	15.193000
9.677338	-0.948741	15.239000
9.708389	-1.011997	15.286000
9.740074	-1.056316	15.332000
9.845796	-1.012942	15.378000
9.876789	-1.084610	15.537000
9.907586	-1.033310	15.584000
10.010917	-1.070599	15.629000
10.041492	-1.073679	15.784000
10.071174	-1.130035	15.831000
10.102889	-1.127686	15.877000
10.133817	-1.054896	15.923000
10.164984	-1.077472	15.969000
10.196175	-1.126280	16.016000
10.227578	-1.104221	16.062000
10.258285	-1.034583	16.109000
10.288904	-1.079900	16.155000
10.319299	-1.128158	16.201000
10.349555	-1.096990	16.247000
10.380739	-1.054730	16.293000
10.411166	-1.109864	16.340000
10.442596	-1.143541	16.386000
10.473718	-1.089245	16.432000
10.720694	-1.070200	16.479000
10.752052	-1.209972	16.850000
10.782367	-1.273683	16.895000
10.813653	-1.258866	16.942000
10.844394	-1.219975	16.988000
10.875313	-1.279344	17.034000
10.905175	-1.328243	17.081000
10.936058	-1.292621	17.127000
10.967437	-1.277362	17.173000
10.998109	-1.349252	17.220000
11.029248	-1.383252	17.266000
11.060462	-1.327973	17.312000
11.091844	-1.336241	17.358000
11.122208	-1.399942	17.405000
11.153827	-1.405838	17.451000
11.184404	-1.347253	17.498000
11.214576	-1.382728	17.544000
11.319032	-1.432462	17.590000
11.350050	-1.409380	17.746000
11.381196	-1.414865	17.793000
11.626080	-1.325559	17.839000
11.656696	-1.266426	18.206000
11.687861	-1.307228	18.251000
11.717393	-1.332645	18.298000
11.748066	-1.270747	18.344000
11.778740	-1.228434	18.391000
11.810374	-1.279397	18.437000
11.841032	-1.296049	18.484000
11.872996	-1.226262	18.530000
11.903643	-1.216294	18.576000
11.934728	-1.265670	18.623000
12.046108	-1.261612	18.669000
12.076553	-1.237400	18.838000
12.108448	-1.158756	18.884000
12.212424	-1.170218	18.930000
12.243426	-1.116066	19.086000
12.274791	-1.164283	19.132000
12.304239	-1.189596	19.178000
12.335629	-1.127310	19.225000
12.366233	-1.099860	19.270000
12.397642	-1.157602	19.317000
12.427845	-1.169915	19.364000
12.459900	-1.091849	19.410000
12.491141	-1.095623	19.457000
12.522429	-1.151069	19.504000
12.552887	-1.152444	19.550000
12.584680	-1.094268	19.596000
12.615416	-1.135383	19.643000
12.645497	-1.173625	19.689000
12.675156	-1.125735	19.735000
12.780088	-1.059480	19.780000
12.811842	-1.052721	19.938000
12.842895	-1.074488	19.984000
12.946154	-1.050535	20.031000
12.976636	-1.110788	20.185000
13.006470	-1.138389	20.231000
13.037398	-1.087120	20.278000
13.068804	-1.108099	20.324000
13.100275	-1.187077	20.371000
13.131058	-1.206899	20.417000
13.162151	-1.170688	20.463000
13.193171	-1.235187	20.510000
13.224017	-1.315031	20.556000
13.254372	-1.316153	20.602000
13.285364	-1.278528	20.649000
13.315475	-1.333295	20.695000
13.346487	-1.367214	20.741000
13.377324	-1.308611	20.787000
13.408935	-1.266006	20.834000
13.513805	-1.291121	20.880000
13.545069	-1.217489	21.037000
13.576176	-1.246155	21.084000
13.678415	-1.202788	21.130000
13.709222	-1.180653	21.285000
13.739894	-1.109288	21.332000
13.771264	-1.136831	21.377000
13.802729	-1.188853	21.424000
13.833533	-1.168183	21.470000
13.863218	-1.129743	21.516000
13.894734	-1.193235	21.562000
13.924998	-1.241176	21.609000
13.955578	-1.210298	21.655000
13.986471	-1.193780	21.701000
14.017528	-1.263321	21.747000
14.048588	-1.293293	21.793000
14.080007	-1.220857	21.840000
14.110731	-1.191055	21.886000
14.141929	-1.232860	21.932000
14.389175	-1.225340	21.978000
14.420243	-1.089213	22.350000
14.450457	-1.021578	22.396000
14.480792	-1.063788	22.442000
14.511758	-1.099069	22.488000
14.542604	-1.057786	22.535000
14.573069	-1.040382	22.581000
14.604797	-1.116571	22.627000
14.635565	-1.157950	22.673000
14.666735	-1.105145	22.720000
14.696578	-1.114483	22.765000
14.728556	-1.174746	22.812000
14.758808	-1.163410	22.858000
14.789329	-1.085597	22.905000
14.818892	-1.098587	22.951000
14.850875	-1.119599	22.997000
14.881741	-1.070408	23.043000
14.986227	-0.995846	23.090000
15.017688	-0.917167	23.245000
15.047412	-0.908969	23.292000
15.291990	-0.848428	23.338000
15.323539	-0.863255	23.705000
15.354421	-0.788606	23.751000
15.386144	-0.734109	23.798000
15.416077	-0.773831	23.844000
15.448069	-0.782597	23.890000
15.478736	-0.713954	23.937000
15.509925	-0.720677	23.983000
15.540495	-0.788324	24.029000
15.571916	-0.802160	24.076000
15.602118	-0.760357	24.122000
15.714957	-0.809722	24.168000
15.746252	-0.871037	24.337000
15.776869	-0.934762	24.384000
15.878786	-0.935445	24.430000
15.910564	-0.947163	24.585000
15.941230	-0.864388	24.631000
15.972594	-0.848041	24.677000
16.002701	-0.879290	24.724000
16.034631	-0.846038	24.770000
16.065382	-0.757819	24.816000
16.096862	-0.787246	24.863000
16.127703	-0.836966	24.909000
16.158723	-0.808032	24.956000
16.189535	-0.756226	25.002000
16.219756	-0.810497	25.049000
16.250655	-0.835363	25.096000
16.282209	-0.775459	25.142000
16.313464	-0.754296	25.188000
16.343967	-0.829550	25.234000
16.448935	-0.865288	25.281000
16.479353	-0.911094	25.438000
16.511069	-0.884542	25.484000
16.613001	-0.909706	25.530000
16.644119	-0.830989	25.685000
16.675341	-0.846896	25.731000
16.705691	-0.880486	25.777000
16.737389	-0.853567	25.823000
16.767702	-0.777261	25.870000
16.799108	-0.798156	25.916000
16.828033	-0.816298	25.962000
16.859963	-0.756332	26.009000
16.891158	-0.708178	26.055000
16.921702	-0.744177	26.102000
16.952455	-0.744535	26.148000
16.984066	-0.671056	26.194000
17.015286	-0.662910	26.241000
17.046281	-0.713358	26.287000
17.077117	-0.704215	26.333000
17.181652	-0.644496	26.379000
17.212906	-0.683199	26.538000
17.243227	-0.694799	26.584000
17.347206	-0.769007	26.630000
17.378003	-0.849110	26.785000
17.408773	-0.902591	26.831000
17.439288	-0.867482	26.877000
17.469503	-0.852128	26.923000
17.499776	-0.908866	26.968000
17.530854	-0.908192	27.015000
17.562110	-0.833348	27.061000
17.593095	-0.842053	27.108000
17.624471	-0.893656	27.155000
17.654847	-0.886944	27.201000
17.686132	-0.833871	27.247000
17.717237	-0.880108	27.293000
17.748100	-0.932575	27.339000
17.777051	-0.903030	27.385000
17.808453	-0.879205	27.432000
18.056974	-0.946355	27.478000
18.087643	-1.042916	27.850000
18.118144	-1.019856	27.896000
18.148319	-0.967196	27.942000
18.180075	-1.010144	27.988000
18.211450	-1.043357	28.035000
18.242662	-0.976981	28.081000
18.273627	-0.930389	28.128000
18.304737	-0.974100	28.174000
18.335333	-0.977905	28.221000
18.365458	-0.892851	28.267000
18.396334	-0.862511	28.313000
18.427732	-0.891948	28.360000
18.458383	-0.866632	28.405000
18.488641	-0.778677	28.452000
18.520206	-0.777397	28.498000
18.551845	-0.804752	28.545000
18.656382	-0.770811	28.590000
18.685919	-0.791753	28.746000
18.715973	-0.723990	28.792000
18.961348	-0.576423	28.838000
18.992005	-0.589982	29.206000
19.023098	-0.610727	29.252000
19.054118	-0.554924	29.298000
19.085130	-0.522911	29.345000
19.116114	-0.580775	29.391000
19.147785	-0.604033	29.437000
19.177922	-0.547158	29.484000
19.207787	-0.558572	29.530000
19.239370	-0.624202	29.577000
19.270058	-0.628594	29.623000
19.383364	-0.576423	29.670000
19.414309	-0.602592	29.837000
19.443809	-0.627030	29.884000
19.546987	-0.623076	29.930000
19.578274	-0.676562	30.085000
19.609169	-0.688673	30.131000
19.640237	-0.638558	30.177000
19.671128	-0.656257	30.223000
19.702348	-0.721935	30.269000
19.732961	-0.730994	30.316000
19.762898	-0.674859	30.362000
19.792911	-0.713093	30.408000
19.824653	-0.765600	30.454000
19.855850	-0.748015	30.501000
19.887631	-0.729045	30.547000
19.917758	-0.809490	30.594000
19.949673	-0.852979	30.640000
19.980814	-0.813214	30.687000
20.012128	-0.835038	30.734000
20.116527	-0.910999	30.780000
20.146746	-0.905008	30.938000
20.177862	-0.919534	30.984000
20.281099	-0.911956	31.031000
20.313492	-0.865039	31.186000
20.344272	-0.820104	31.232000
20.375515	-0.844445	31.279000
20.405340	-0.838383	31.325000
20.436291	-0.764226	31.371000
20.466566	-0.752292	31.417000
20.497463	-0.807994	31.463000
20.528519	-0.809787	31.510000
20.559966	-0.743716	31.556000
20.591094	-0.756856	31.602000
20.621466	-0.792939	31.649000
20.652488	-0.758386	31.695000
20.682867	-0.690981	31.741000
20.713606	-0.718758	31.787000
20.742340	-0.740109	31.833000
20.849142	-0.680115	31.879000
20.879905	-0.634479	32.038000
20.911599	-0.570060	32.084000
21.015466	-0.574099	32.130000
21.045449	-0.569839	32.285000
21.076096	-0.615280	32.331000
21.105777	-0.598547	32.377000
21.137583	-0.523406	32.423000
21.168336	-0.530141	32.469000
21.199662	-0.545517	32.516000
21.230322	-0.479463	32.562000
21.261634	-0.398677	32.609000
21.293198	-0.438139	32.655000
21.324045	-0.478033	32.701000
21.353984	-0.432056	32.748000
21.384418	-0.392700	32.794000
21.415273	-0.443234	32.840000
21.445932	-0.458169	32.886000
21.477703	-0.388150	32.933000
21.724384	-0.388977	32.978000
21.755577	-0.390257	33.350000
21.787048	-0.399937	33.397000
21.817615	-0.330993	33.443000
21.849194	-0.315954	33.489000
21.879986	-0.372557	33.536000
21.910948	-0.367417	33.582000
21.941207	-0.287850	33.629000
21.972141	-0.288009	33.675000
22.003380	-0.314474	33.721000
22.033420	-0.268599	33.767000
22.064250	-0.181451	33.813000
22.095614	-0.200474	33.860000
22.127420	-0.209376	33.906000
22.158255	-0.135527	33.953000
22.189101	-0.079015	34.000000
22.219929	-0.115537	34.046000
22.322810	-0.125396	34.092000
22.353724	-0.130273	34.248000
22.385100	-0.093109	34.294000
22.630004	0.032157	34.340000
22.660277	0.028802	34.707000
22.691458	-0.018156	34.753000
22.722749	-0.003237	34.799000
22.752872	0.054589	34.845000
22.782561	0.011341	34.891000
22.813399	-0.032515	34.937000
22.844302	0.001211	34.983000
22.875700	0.022959	35.030000
22.907221	-0.039875	35.076000
22.938522	-0.068126	35.122000
23.050186	-0.005290	35.169000
23.080737	0.040630	35.338000
23.111517	0.075871	35.384000
23.215044	0.097327	35.430000
23.245729	0.059034	35.584000
23.277034	0.019583	35.630000
23.307791	0.059023	35.677000
23.337720	0.104591	35.723000
23.367966	0.073586	35.769000
23.399838	0.070647	35.816000
23.431271	0.134898	35.862000
23.462351	0.138800	35.909000
23.493014	0.079300	35.955000
23.524704	0.083367	36.002000
23.555415	0.153206	36.048000
23.586850	0.126184	36.095000
23.616472	0.079500	36.141000
23.647753	0.094578	36.187000
23.677674	0.135758	36.233000
23.783769	0.080685	36.280000
23.814395	0.104205	36.437000
23.845168	0.066217	36.483000
23.948989	0.064948	36.530000
23.979686	0.041281	36.685000
24.010927	0.101803	36.731000
24.040760	0.084352	36.778000
24.071705	0.025445	36.824000
24.103165	0.035784	36.871000
24.134331	0.083336	36.917000
24.165622	0.031254	36.963000
24.195485	-0.017487	37.008000
24.227074	0.015503	37.055000
24.258253	0.037053	37.102000
24.288576	-0.035484	37.148000
24.318882	-0.060864	37.195000
24.350188	0.002563	37.241000
24.381091	0.010616	37.287000
24.412082	-0.026286	37.334000
24.517641	-0.001055	37.380000
24.547935	0.000287	37.538000
24.579712	0.063574	37.584000
24.681064	0.041091	37.630000
24.712492	0.089944	37.785000
24.743003	0.030574	37.831000
24.774630	-0.012432	37.877000
24.805604	0.022740	37.923000
24.836672	0.032870	37.970000
24.867655	-0.040894	38.016000
24.897842	-0.074380	38.062000
24.928789	-0.035053	38.108000
24.959401	-0.060434	38.155000
24.990120	-0.122399	38.201000
25.020763	-0.120719	38.248000
25.053113	-0.090375	38.295000
25.083745	-0.160168	38.341000
25.115414	-0.225331	38.388000
25.145839	-0.206096	38.434000
25.392022	-0.199569	38.480000
25.423476	-0.178191	38.850000
25.454819	-0.218163	38.897000
25.485958	-0.182951	38.943000
25.515486	-0.158085	38.988000
25.546546	-0.221231	39.035000
25.577268	-0.247295	39.082000
25.608682	-0.192210	39.128000
25.639529	-0.200661	39.175000
25.670446	-0.263461	39.221000
25.702111	-0.265314	39.267000
25.732591	-0.228388	39.314000
25.764159	-0.276421	39.360000
25.795390	-0.326354	39.407000
25.825782	-0.296618	39.453000
25.854666	-0.273043	39.499000
25.886499	-0.329375	39.546000
25.991213	-0.354101	39.592000
26.022260	-0.361065	39.748000
26.053451	-0.322423	39.794000
26.298332	-0.224668	39.840000
26.328493	-0.200465	40.207000
26.360274	-0.243449	40.254000
26.390126	-0.233666	40.300000
26.421386	-0.165191	40.347000
26.451456	-0.186139	40.393000
26.482869	-0.234801	40.439000
26.514306	-0.215272	40.485000
26.544811	-0.173820	40.532000
26.575574	-0.239014	40.578000
26.606990	-0.293262	40.624000
26.717828	-0.266061	40.670000
26.748944	-0.329355	40.837000
26.779914	-0.293765	40.884000
26.883471	-0.327720	40.930000
26.913420	-0.351546	41.085000
26.944737	-0.384783	41.132000
26.975592	-0.340430	41.178000
27.006514	-0.291457	41.224000
27.037006	-0.334442	41.271000
27.068839	-0.351503	41.317000
27.099693	-0.281988	41.364000
27.131269	-0.228925	41.410000
27.161532	-0.237418	41.456000
27.192878	-0.207601	41.502000
27.223263	-0.114866	41.548000
27.253157	-0.099950	41.595000
27.283607	-0.112930	41.641000
27.315245	-0.060413	41.687000
27.346597	0.002543	41.734000
27.452199	-0.038425	41.780000
27.482673	-0.020674	41.937000
27.513071	-0.062272	41.983000
27.616049	0.006190	42.030000
27.646790	0.047990	42.185000
27.677583	0.168632	42.231000
27.708432	0.196338	42.277000
27.739485	0.178836	42.323000
27.770926	0.227163	42.369000
27.801792	0.303630	42.415000
27.832280	0.283320	42.461000
27.861739	0.276015	42.508000
27.893006	0.354196	42.554000
27.923819	0.404643	42.600000
27.955287	0.371031	42.647000
27.985928	0.378599	42.693000
28.017371	0.450890	42.740000
28.048931	0.435978	42.786000
28.079837	0.383560	42.832000
28.185882	0.401035	42.878000
28.216488	0.394586	43.038000
28.246367	0.466368	43.084000
28.349235	0.499281	43.131000
28.380833	0.516647	43.285000
28.412149	0.464785	43.331000
28.443023	0.471560	43.378000
28.473874	0.563961	43.424000
28.504268	0.587323	43.470000
28.534537	0.568553	43.516000
28.565414	0.604049	43.562000
28.595708	0.664640	43.609000
28.627358	0.621768	43.655000
28.658463	0.580666	43.702000
28.689533	0.621779	43.748000
28.720223	0.648413	43.794000
28.752059	0.591415	43.841000
28.782620	0.569027	43.886000
28.812772	0.630798	43.933000
29.060087	0.635212	43.980000
29.091297	0.579418	44.350000
29.122188	0.544907	44.397000
29.152363	0.587923	44.443000
29.182984	0.587576	44.489000
29.214398	0.519563	44.536000
29.245923	0.507305	44.582000
29.276968	0.553360	44.628000
29.307458	0.522520	44.675000
29.339108	0.469430	44.721000
29.370176	0.495112	44.768000
29.400280	0.547045	44.813000
29.429834	0.510407	44.860000
29.461298	0.486230	44.906000
29.492087	0.534738	44.952000
29.523576	0.556109	44.999000
29.554383	0.500699	45.045000
29.658390	0.485632	45.092000
29.690305	0.449444	45.248000
29.720872	0.490762	45.294000
29.964927	0.517275	45.341000
29.995751	0.461619	45.707000
30.025782	0.394292	45.753000
30.054509	0.407406	45.800000
30.085461	0.457539	45.846000
30.117021	0.437395	45.893000
30.147832	0.439105	45.939000
30.179025	0.516206	45.985000
30.210087	0.551138	46.032000
30.239855	0.527186	46.078000
30.270725	0.557764	46.124000
30.382769	0.635926	46.170000
30.414419	0.617672	46.338000
30.445272	0.595566	46.384000
30.546536	0.575631	46.431000
30.577786	0.522298	46.585000
30.608426	0.528497	46.632000
30.640664	0.602854	46.678000
30.671181	0.594369	46.724000
30.702527	0.542211	46.770000
30.733182	0.561328	46.816000
30.764352	0.611966	46.863000
30.794212	0.581556	46.908000
30.824719	0.564347	46.955000
30.854896	0.618374	47.000000
30.886504	0.658325	47.047000
30.917151	0.614024	47.092000
30.948577	0.605160	47.139000
30.979551	0.664650	47.185000
31.010021	0.665123	47.232000
31.116992	0.617165	47.278000
31.147407	0.671787	47.438000
31.177945	0.664565	47.484000
31.281307	0.646994	47.531000
31.310976	0.700050	47.684000
31.343318	0.712093	47.731000
31.374423	0.648518	47.777000
31.405089	0.628097	47.824000
31.434834	0.662159	47.870000
31.466088	0.615296	47.917000
31.496299	0.535290	47.963000
31.527611	0.528789	48.009000
31.558184	0.543753	48.056000
31.590113	0.475868	48.102000
31.620877	0.423246	48.148000
31.652373	0.448804	48.195000
31.683315	0.444880	48.241000
31.713985	0.368131	48.287000
31.744815	0.341897	48.334000
31.849206	0.383338	48.379000
31.880113	0.317976	48.538000
31.910749	0.317618	48.584000
32.014552	0.324649	48.630000
32.045907	0.286442	48.785000
32.076765	0.257506	48.831000
32.107643	0.301602	48.878000
32.137332	0.320372	48.924000
32.168677	0.259011	48.971000
32.199996	0.235288	49.018000
32.230976	0.272715	49.064000
32.261602	0.239639	49.110000
32.293777	0.163818	49.157000
32.324803	0.157024	49.203000
32.355602	0.184115	49.250000
32.385790	0.123497	49.296000
32.416950	0.074486	49.342000
32.447215	0.106227	49.388000
32.477884	0.121505	49.435000
32.723816	0.054943	49.481000
32.754661	-0.060161	49.850000
32.786167	-0.006581	49.896000
32.817132	0.023580	49.942000
32.847873	-0.017675	49.989000
32.879298	-0.001054	50.034000
32.910263	0.105977	50.081000
32.940758	0.149571	50.127000
32.970816	0.133461	50.174000
33.001350	0.179391	50.220000
33.032434	0.272915	50.266000
33.063344	0.272768	50.312000
33.094397	0.256383	50.359000
33.125976	0.317453	50.405000
33.156979	0.383978	50.451000
33.187540	0.355383	50.497000
33.217259	0.343601	50.544000
33.321347	0.400472	50.590000
33.351989	0.389097	50.746000
33.383471	0.415887	50.792000
33.628581	0.302252	50.838000
33.659196	0.246902	51.205000
33.690114	0.267525	51.251000
33.721444	0.310387	51.298000
33.752735	0.253241	51.344000
33.783365	0.203674	51.391000
33.812888	0.234395	51.437000
33.844244	0.228269	51.484000
33.875232	0.149002	51.530000
33.907007	0.121537	51.576000
33.937518	0.158629	51.623000
34.049869	0.119473	51.669000
34.081479	0.083483	51.837000
34.111556	0.030627	51.884000
34.215110	0.042044	51.930000
34.246082	0.034378	52.084000
34.276777	0.090049	52.130000
34.308095	0.074592	52.177000
34.339351	0.011843	52.224000
34.369432	0.013437	52.270000
34.399440	0.040022	52.316000
34.430892	-0.021273	52.363000
34.461668	-0.079760	52.409000
34.493562	-0.045941	52.455000
34.523708	-0.020748	52.502000
34.555514	-0.075821	52.548000
34.586132	-0.095495	52.594000
34.617707	-0.053770	52.641000
34.647120	-0.082347	52.687000
34.678514	-0.147302	52.734000
34.783466	-0.115758	52.779000
34.813889	-0.113981	52.937000
34.845418	-0.068295	52.983000
34.948953	-0.102083	53.028000
34.979729	-0.078446	53.184000
35.009291	-0.120709	53.230000
35.041054	-0.109714	53.277000
35.071185	-0.037540	53.323000
35.102752	-0.040504	53.370000
35.133828	-0.058006	53.416000
35.164823	0.007607	53.463000
35.196045	0.096853	53.509000
35.226821	0.092345	53.555000
35.258012	0.095366	53.601000
35.289103	0.166054	53.648000
35.318930	0.197180	53.694000
35.348888	0.148080	53.740000
35.380148	0.130263	53.786000
35.410897	0.174631	53.832000
35.517475	0.146611	53.879000
35.548865	0.061425	54.038000
35.579972	-0.016208	54.084000
35.682842	-0.063429	54.131000
35.711666	-0.105783	54.285000
35.743579	-0.066391	54.332000
35.774705	-0.052518	54.378000
35.805961	-0.114666	54.425000
35.836784	-0.134760	54.471000
35.868144	-0.085899	54.517000
35.899146	-0.095463	54.564000
35.930533	-0.142668	54.610000
35.961006	-0.123043	54.656000
35.991455	-0.072593	54.703000
36.022662	-0.116387	54.749000
36.053011	-0.136599	54.795000
36.083960	-0.068893	54.842000
36.115105	-0.020431	54.888000
36.146219	-0.052676	54.934000
36.392520	-0.038193	54.980000
36.422782	0.100967	55.350000
36.454875	0.138087	55.397000
36.486143	0.088865	55.443000
36.516589	0.077863	55.489000
36.546270	0.151582	55.535000
36.577722	0.171034	55.582000
36.608176	0.133682	55.628000
36.639251	0.156794	55.675000
36.669901	0.217507	55.721000
36.701357	0.197044	55.767000
36.732352	0.158924	55.813000
36.763186	0.197694	55.859000
36.794396	0.239988	55.906000
36.825210	0.219314	55.952000
36.856186	0.229215	55.999000
36.885568	0.289448	56.045000
36.990297	0.263394	56.092000
37.021042	0.227491	56.247000
37.052241	0.153334	56.293000
37.297220	0.120637	56.339000
37.328565	0.179800	56.706000
37.359549	0.230234	56.753000
37.389533	0.203853	56.799000
37.420378	0.214384	56.845000
37.451039	0.281555	56.892000
37.482173	0.285863	56.938000
37.512999	0.239819	56.985000
37.544347	0.258003	57.031000
37.574943	0.309674	57.076000
37.605388	0.273294	57.123000
37.717563	0.230884	57.169000
37.748777	0.218009	57.338000
37.779695	0.250297	57.384000
37.883203	0.254187	57.431000
37.914459	0.297019	57.585000
37.944905	0.247187	57.631000
37.975174	0.211211	57.678000
38.005816	0.254868	57.724000
38.037283	0.279567	57.771000
38.068171	0.231924	57.817000
38.098540	0.236003	57.863000
38.130445	0.301696	57.910000
38.161517	0.289816	57.956000
38.193161	0.247050	58.003000
38.223200	0.278674	58.048000
38.254007	0.340457	58.095000
38.284007	0.318397	58.141000
38.315240	0.302263	58.188000
38.346077	0.347888	58.234000
38.450960	0.359807	58.281000
38.482985	0.320403	58.438000
38.513803	0.259608	58.484000
38.617000	0.249310	58.531000
38.646981	0.202359	58.685000
38.677396	0.220405	58.732000
38.709178	0.241509	58.778000
38.740677	0.181564	58.825000
38.771726	0.146611	58.871000
38.802344	0.195075	58.918000
38.834219	0.203085	58.965000
38.865368	0.157496	59.011000
38.896539	0.167782	59.057000
38.926655	0.225903	59.104000
38.957608	0.197966	59.150000
38.987608	0.162162	59.196000
39.018868	0.213469	59.243000
39.049098	0.255961	59.289000
39.080862	0.215812	59.335000
39.185856	0.203600	59.381000
39.216617	0.212911	59.538000
39.247954	0.265336	59.585000
39.349656	0.231811	59.631000
39.380639	0.270635	59.785000
39.411823	0.227668	59.831000
39.442403	0.189559	59.877000
39.473033	0.224021	59.923000
39.503667	0.242015	59.970000
39.535131	0.181646	60.016000
39.565738	0.164448	60.062000
39.595546	0.229675	60.109000
39.626303	0.244285	60.155000
39.657801	0.208908	60.201000
39.688969	0.222991	60.248000
39.720340	0.268322	60.294000
39.750717	0.234373	60.340000
39.783164	0.207890	60.387000
39.813229	0.263667	60.433000
40.060625	0.301275	60.480000
40.091828	0.118551	60.851000
40.121839	0.065275	60.896000
40.152888	0.093867	60.943000
40.183249	0.107342	60.989000
40.213730	0.036825	61.036000
40.244990	0.031256	61.081000
40.276031	0.109930	61.128000
40.307337	0.124002	61.174000
40.337456	0.081586	61.220000
40.369396	0.108274	61.266000
40.399965	0.159301	61.313000
40.430153	0.118572	61.359000
40.459846	0.076551	61.406000
40.491721	0.104206	61.452000
40.522697	0.108003	61.499000
40.554268	0.046661	61.545000
40.658556	0.030008	61.591000
40.688690	0.009076	61.747000
40.720642	0.068840	61.793000
40.964376	0.106543	61.839000
40.994492	0.065546	62.206000
41.025671	0.028412	62.252000
41.055975	0.063218	62.299000
41.087880	0.059892	62.345000
41.118441	-0.006507	62.391000
41.149444	-0.015828	62.438000
41.180162	0.035093	62.484000
41.211826	0.015680	62.530000
41.242859	-0.006475	62.577000
41.273251	0.047624	62.623000
41.385914	0.109008	62.670000
41.416275	0.245927	62.838000
41.448019	0.233555	62.885000
41.551550	0.354509	62.930000
41.581704	0.348140	63.086000
41.612157	0.410190	63.132000
41.642879	0.455987	63.179000
41.674639	0.424191	63.225000
41.705684	0.429026	63.272000
41.737186	0.493853	63.318000
41.767905	0.485295	63.365000
41.799249	0.428249	63.411000
41.830156	0.438453	63.457000
41.860886	0.476100	63.504000
41.890041	0.433010	63.550000
41.921762	0.409490	63.596000
41.952995	0.461251	63.643000
41.983498	0.484919	63.689000
42.014321	0.443382	63.735000
42.119115	0.453017	63.782000
42.150375	0.487183	63.938000
42.181328	0.552269	63.984000
42.282746	0.590187	64.030000
42.314187	0.638416	64.185000
42.344917	0.612941	64.231000
42.376538	0.620141	64.278000
42.407556	0.684506	64.324000
42.438421	0.685849	64.370000
42.468555	0.639364	64.417000
42.499316	0.654552	64.463000
42.530161	0.697254	64.509000
42.561517	0.654130	64.556000
42.591832	0.616315	64.602000
42.623707	0.652657	64.649000
42.655155	0.663106	64.695000
42.686112	0.603380	64.742000
42.716861	0.592083	64.788000
42.747795	0.642749	64.834000
42.852371	0.629600	64.880000
42.883346	0.663294	65.039000
42.913289	0.611169	65.084000
43.017784	0.660311	65.129000
43.048303	0.655802	65.285000
43.078971	0.725467	65.332000
43.110746	0.738942	65.378000
43.141372	0.694362	65.425000
43.171607	0.717422	65.471000
43.201150	0.777408	65.517000
43.232682	0.743092	65.563000
43.263674	0.697851	65.609000
43.295633	0.737586	65.656000
43.326348	0.768190	65.702000
43.357869	0.724806	65.749000
43.388153	0.718095	65.795000
43.418983	0.764596	65.841000
43.449356	0.739823	65.888000
43.479867	0.684369	65.934000
43.727535	0.707331	65.979000
43.757808	0.861078	66.351000
43.787973	0.819544	66.397000
43.819426	0.754644	66.443000
43.850640	0.756409	66.488000
43.881961	0.746908	66.536000
43.912200	0.658818	66.582000
43.944090	0.594791	66.629000
43.975046	0.604060	66.675000
44.006629	0.572603	66.722000
44.036072	0.497113	66.768000
44.067859	0.486438	66.815000
44.097817	0.516395	66.861000
44.129369	0.474046	66.907000
44.159745	0.419631	66.953000
44.190606	0.446033	66.999000
44.222016	0.465593	67.046000
44.326242	0.397011	67.092000
44.357659	0.374878	67.248000
44.387199	0.330629	67.295000
44.631348	0.447271	67.341000
44.663085	0.511644	67.708000
44.693857	0.498975	67.755000
44.725324	0.478216	67.801000
44.756319	0.523535	67.847000
44.787207	0.565564	67.893000
44.818559	0.512073	67.940000
44.848763	0.485663	67.986000
44.880146	0.534798	68.032000
44.909881	0.529386	68.079000
44.941329	0.483367	68.125000
45.054180	0.507730	68.171000
45.084929	0.578704	68.339000
45.115256	0.641391	68.385000
45.217561	0.693385	68.431000
45.249601	0.708121	68.586000
45.280462	0.683002	68.632000
45.311876	0.722195	68.679000
45.342429	0.786395	68.724000
45.373593	0.767203	68.771000
45.404573	0.747392	68.817000
45.435080	0.799207	68.864000
45.464650	0.830202	68.910000
45.495591	0.792617	68.956000
45.526951	0.798165	69.002000
45.557608	0.866803	69.048000
45.589018	0.879052	69.094000
45.619925	0.855248	69.141000
45.651711	0.892935	69.187000
45.681469	0.951604	69.234000
45.787416	0.928968	69.280000
45.817470	0.993820	69.439000
45.848772	0.966629	69.485000
45.953114	1.010935	69.531000
45.984082	1.029937	69.686000
46.015069	1.076020	69.733000
46.045092	1.032504	69.779000
46.076330	0.981394	69.826000
46.106537	1.007202	69.872000
46.137159	1.012360	69.917000
46.167129	0.941253	69.964000
46.199165	0.909829	70.010000
46.230037	0.945669	70.056000
46.261047	0.918785	70.102000
46.291820	0.857386	70.148000
46.322945	0.872485	70.194000
46.354102	0.914893	70.241000
46.384144	0.870536	70.288000
46.414736	0.842682	70.334000
46.519611	0.897695	70.381000
46.551075	0.915501	70.539000
46.582758	0.955535	70.585000
46.686454	0.965211	70.631000
46.717933	0.931519	70.785000
46.747714	0.893250	70.833000
46.779262	0.930968	70.879000
46.809435	0.947271	70.926000
46.840660	0.893112	70.972000
46.871049	0.880487	71.018000
46.902666	0.930652	71.065000
46.933788	0.917064	71.111000
46.964875	0.868490	71.157000
46.995509	0.896981	71.204000
47.026769	0.938231	71.250000
47.057772	0.897789	71.297000
47.087395	0.879312	71.343000
47.117749	0.934339	71.389000
47.149455	0.948193	71.435000
47.395391	0.898313	71.482000
47.426255	0.867684	71.851000
47.457642	0.917599	71.897000
47.488130	0.918731	71.943000
47.519509	0.868313	71.989000
47.550639	0.881987	72.035000
47.580527	0.932926	72.081000
47.610954	0.905781	72.128000
47.642279	0.868366	72.174000
47.672226	0.901681	72.220000
47.702890	0.917859	72.265000
47.734450	0.857437	72.312000
47.765914	0.834640	72.359000
47.796636	0.881598	72.405000
47.827696	0.886108	72.452000
47.858480	0.856505	72.497000
47.888895	0.898492	72.543000
47.992764	0.963400	72.590000
48.023878	1.037486	72.746000
48.054489	1.038157	72.793000
48.299787	1.074578	72.839000
48.330752	1.079192	73.207000
48.362142	1.126877	73.252000
48.393041	1.100506	73.299000
48.422961	1.070312	73.346000
48.453821	1.120928	73.392000
48.484528	1.167209	73.438000
48.515439	1.130126	73.484000
48.546096	1.126585	73.531000
48.577948	1.186696	73.577000
48.608850	1.193684	73.623000
48.720975	1.168523	73.670000
48.751889	1.218383	73.838000
48.782243	1.238878	73.885000
48.886665	1.197331	73.931000
48.918040	1.243270	74.086000
48.949431	1.218751	74.133000
48.980399	1.180135	74.179000
49.010718	1.221200	74.226000
49.041863	1.258886	74.272000
49.072136	1.226907	74.319000
49.102981	1.222807	74.365000
49.133458	1.270360	74.411000
49.165632	1.254590	74.458000
49.196400	1.202377	74.504000
49.227584	1.236534	74.550000
49.257810	1.316416	74.597000
49.289866	1.313334	74.643000
49.320020	1.294132	74.690000
49.350623	1.331708	74.736000
49.455033	1.336395	74.782000
49.485448	1.338828	74.939000
49.516751	1.275131	74.985000
49.620550	1.212929	75.031000
49.651856	1.165864	75.186000
49.682202	1.196418	75.233000
49.712321	1.228221	75.279000
49.743789	1.182521	75.326000
49.774907	1.170709	75.372000
49.805579	1.224436	75.419000
49.836551	1.221001	75.465000
49.868196	1.172349	75.511000
49.899321	1.191478	75.558000
49.930224	1.241549	75.604000
49.960781	1.213874	75.650000
49.992003	1.196207	75.697000
50.021861	1.252437	75.743000
50.053286	1.284287	75.790000
50.083309	1.246433	75.836000
50.188557	1.248032	75.882000
50.219825	1.256221	76.039000
50.250717	1.309434	76.085000
50.353978	1.320633	76.131000
50.383848	1.363969	76.287000
50.415411	1.326484	76.333000
50.446076	1.312831	76.380000
50.477501	1.366110	76.426000
50.508881	1.374025	76.472000
50.539684	1.328717	76.519000
50.571078	1.342552	76.565000
50.601835	1.394138	76.611000
50.632830	1.366592	76.657000
50.662185	1.333636	76.704000
50.693533	1.375977	76.750000
50.724221	1.403241	76.797000
50.755662	1.355555	76.843000
50.785681	1.349923	76.889000
50.818032	1.408273	76.936000
51.063830	1.407625	76.982000
51.095228	1.429866	77.351000
51.125874	1.432140	77.398000
51.156350	1.485568	77.444000
51.187334	1.474967	77.490000
51.217357	1.440007	77.536000
51.247595	1.479244	77.581000
51.278367	1.529786	77.628000
51.310035	1.481555	77.674000
51.341245	1.439292	77.721000
51.372463	1.459324	77.767000
51.403135	1.439419	77.813000
51.433577	1.368941	77.858000
51.464003	1.335974	77.905000
51.493988	1.360995	77.952000
51.525817	1.334308	77.998000
51.556543	1.313439	78.044000
51.660696	1.375390	78.091000
51.691722	1.419915	78.246000
51.722317	1.482322	78.292000
51.966859	1.602162	78.339000
51.997473	1.555566	78.706000
52.028146	1.573372	78.752000
52.059233	1.618958	78.798000
52.090247	1.563165	78.845000
52.121534	1.501272	78.892000
52.152641	1.530196	78.938000
52.184062	1.540379	78.985000
52.214965	1.480807	79.031000
52.246398	1.464911	79.078000
52.277720	1.497276	79.124000
52.389003	1.460537	79.170000
52.419975	1.378786	79.339000
52.450390	1.311174	79.385000
52.554520	1.247894	79.431000
52.584797	1.239443	79.587000
52.615212	1.283090	79.632000
52.645754	1.266901	79.679000
52.676553	1.236819	79.724000
52.707648	1.284068	79.771000
52.739722	1.326905	79.817000
52.770802	1.294155	79.863000
52.801463	1.290200	79.910000
52.831382	1.356989	79.956000
52.862020	1.375011	80.002000
52.892343	1.351085	80.048000
52.923272	1.393605	80.095000
52.954482	1.458177	80.141000
52.985670	1.437708	80.187000
53.016154	1.426173	80.233000
53.122316	1.489100	80.280000
53.154325	1.533937	80.439000
53.184590	1.578910	80.485000
53.286535	1.649260	80.531000
53.318098	1.630089	80.687000
53.349408	1.611790	80.733000
53.380350	1.669995	80.780000
53.411083	1.697042	80.826000
53.442758	1.657813	80.872000
53.473339	1.667335	80.918000
53.504030	1.727632	80.964000
53.533865	1.724130	81.010000
53.564814	1.691494	81.056000
53.595502	1.735139	81.103000
53.626942	1.781460	81.149000
53.657476	1.744097	81.196000
53.689171	1.735750	81.242000
53.719997	1.790162	81.288000
53.751583	1.796041	81.335000
53.856916	1.757551	81.381000
53.886732	1.810102	81.539000
53.917884	1.826358	81.585000
54.020842	1.876764	81.631000
54.052110	1.937286	81.787000
54.083271	1.958307	81.833000
54.114473	1.920901	81.880000
54.145595	1.938894	81.926000
54.176924	1.987861	81.973000
54.206966	1.946871	82.019000
54.236317	1.892600	82.065000
54.268131	1.925325	82.111000
54.298622	1.954984	82.157000
54.330666	1.918609	82.204000
54.361012	1.930170	82.250000
54.392587	2.002458	82.296000
54.423317	2.001218	82.342000
54.454504	1.959734	82.389000
54.483340	1.989207	82.435000
54.731589	2.040017	82.481000
54.761808	1.962236	82.851000
54.792515	1.917242	82.897000
54.822838	1.945410	82.944000
54.854025	1.964991	82.990000
54.884740	1.909254	83.036000
54.915888	1.889078	83.082000
54.946234	1.927827	83.128000
54.977513	1.910813	83.173000
55.008201	1.847971	83.220000
55.038927	1.846125	83.267000
55.068174	1.871241	83.313000
55.099830	1.822300	83.359000
55.130349	1.784480	83.405000
55.161582	1.816681	83.451000
55.192270	1.818376	83.497000
55.224145	1.752663	83.544000
55.328106	1.734270	83.590000
55.358286	1.671646	83.746000
55.388889	1.713035	83.792000
55.633611	1.843126	83.838000
55.664222	1.819855	84.206000
55.695878	1.842422	84.252000
55.726938	1.924095	84.298000
55.757922	1.941973	84.345000
55.788898	1.925368	84.391000
55.820807	1.966622	84.438000
55.851130	1.998393	84.484000
55.881314	1.948291	84.530000
55.911376	1.914372	84.576000
55.942609	1.940533	84.623000
56.056198	1.926260	84.670000
56.087704	1.933355	84.839000
56.118468	1.884651	84.885000
56.221273	1.873336	84.931000
56.251104	1.871572	85.086000
56.283059	1.911220	85.133000
56.314108	1.886652	85.179000
56.345234	1.859064	85.225000
56.375979	1.901754	85.271000
56.407604	1.934249	85.318000
56.438354	1.891769	85.364000
56.468884	1.895955	85.410000
56.497893	1.954091	85.456000
56.529353	1.952903	85.503000
56.560851	1.915591	85.549000
56.591685	1.942046	85.595000
56.622464	1.985683	85.641000
56.653813	1.953954	85.688000
56.685357	1.930843	85.734000
56.790728	1.973818	85.780000
56.821028	1.935542	85.939000
56.850632	1.949635	85.985000
56.954063	1.906534	86.031000
56.985658	1.861873	86.185000
57.016226	1.826503	86.232000
57.047782	1.867357	86.278000
57.077114	1.884115	86.324000
57.108266	1.847664	86.370000
57.138466	1.859921	86.416000
57.169623	1.919523	86.462000
57.200852	1.917368	86.508000
57.231513	1.897065	86.555000
57.262907	1.949267	86.601000
57.293618	1.999443	86.647000
57.324264	1.981712	86.694000
57.355120	2.004288	86.740000
57.385701	2.078913	86.786000
57.415720	2.109128	86.832000
57.523281	2.094490	86.878000
57.554057	2.182565	87.039000
57.584625	2.205423	87.085000
57.688694	2.220251	87.131000
57.719839	2.277944	87.286000
57.750930	2.277556	87.332000
57.780480	2.241366	87.378000
57.810415	2.272994	87.424000
57.841952	2.324755	87.471000
57.872824	2.308292	87.517000
57.903823	2.302009	87.563000
57.934584	2.366785	87.609000
57.965936	2.405011	87.655000
57.997089	2.385934	87.702000
58.027676	2.412702	87.748000
58.057930	2.452362	87.794000
58.088587	2.406146	87.840000
58.119029	2.340475	87.886000
58.150258	2.339027	87.933000
58.396947	2.329105	87.979000
58.429064	1.984739	88.351000
58.460078	1.930455	88.397000
58.491043	1.947039	88.444000
58.521469	1.934943	88.490000
58.553644	1.871428	88.537000
58.584354	1.864916	88.583000
58.615034	1.902144	88.629000
58.644443	1.874332	88.675000
58.675711	1.828404	88.721000
58.705860	1.853945	88.767000
58.736898	1.872099	88.813000
58.767693	1.822679	88.859000
58.798427	1.811382	88.904000
58.828796	1.869037	88.949000
58.858569	1.890242	88.995000
58.888281	1.864508	89.041000
58.992572	1.901912	89.087000
59.024305	1.972465	89.243000
59.055269	2.035907	89.290000
59.300003	2.240075	89.336000
59.331601	2.206398	89.703000
59.361889	2.221289	89.750000
59.393107	2.269061	89.796000
59.423199	2.246674	89.842000
59.453180	2.192682	89.888000
59.484175	2.202309	89.934000
59.515578	2.213353	89.980000
59.546273	2.154448	90.026000
59.576719	2.118865	90.072000
59.608755	2.147286	90.119000
59.724710	2.134985	90.165000
59.754452	2.136142	90.339000
59.785113	2.111756	90.385000
59.888859	2.163406	90.431000
59.919754	2.161296	90.587000
59.950346	2.236574	90.633000
59.981940	2.271685	90.679000
60.012601	2.226236	90.725000
60.043320	2.227315	90.771000
60.071622	2.261510	90.817000
60.101253	2.222790	90.864000
60.132156	2.187660	90.910000
60.162989	2.209942	90.956000
60.194411	2.194790	91.003000
60.224968	2.129460	91.049000
60.256447	2.143094	91.095000
60.286543	2.212063	91.141000
60.318042	2.212252	91.187000
60.347761	2.202741	91.234000
60.454023	2.271327	91.280000
60.484911	2.363989	91.439000
60.515660	2.405820	91.485000
60.619779	2.312202	91.531000
60.649763	2.256143	91.686000
60.681926	2.180863	91.733000
60.712422	2.188571	91.779000
60.742791	2.200022	91.826000
60.772718	2.133176	91.872000
60.804220	2.091788	91.918000
60.835326	2.111504	91.964000
60.866287	2.082624	92.010000
60.897217	2.006390	92.057000
60.928765	2.002050	92.103000
60.959637	2.041551	92.149000
60.990283	2.011959	92.196000
61.020160	1.980229	92.242000
61.050678	2.023871	92.288000
61.081866	2.051250	92.334000
61.187786	2.005550	92.380000
61.218923	1.972788	92.539000
61.249384	1.934217	92.585000
61.352776	1.897494	92.631000
61.383668	1.926248	92.786000
61.413848	1.945190	92.833000
61.444943	1.891298	92.879000
61.475278	1.868837	92.925000
61.506764	1.913060	92.970000
61.537733	1.905602	93.017000
61.568705	1.858338	93.063000
61.599435	1.872653	93.109000
61.630591	1.902473	93.156000
61.661071	1.854354	93.202000
61.691525	1.823682	93.248000
61.722101	1.880170	93.295000
61.753219	1.911388	93.341000
61.784203	1.874488	93.387000
61.814717	1.885550	93.433000
62.062709	1.936549	93.479000
62.093784	2.109108	93.851000
62.124729	2.087122	93.898000
62.155740	2.126955	93.944000
62.186316	2.191876	93.990000
62.217630	2.171774	94.036000
62.247557	2.162869	94.083000
62.278022	2.219046	94.129000
62.309033	2.236535	94.175000
62.340300	2.182816	94.221000
62.371334	2.170798	94.267000
62.402141	2.201093	94.313000
62.432310	2.160365	94.359000
62.463766	2.101121	94.406000
62.494039	2.111191	94.452000
62.524154	2.125559	94.498000
62.554484	2.075162	94.544000
62.659179	2.062266	94.590000
62.690024	2.068731	94.744000
62.720897	2.121699	94.790000
62.965711	2.144245	94.836000
62.996617	2.084345	95.204000
63.025884	2.049904	95.251000
63.057455	2.079553	95.297000
63.088750	2.055034	95.344000
63.119848	1.995859	95.390000
63.150398	2.010939	95.436000
63.181889	2.052166	95.483000
63.213110	2.018533	95.529000
63.244340	1.994312	95.576000
63.275093	2.058228	95.622000
63.387494	2.089201	95.669000
63.418512	2.145567	95.839000
63.449841	2.104747	95.885000
63.553837	2.159103	95.932000
63.584966	2.147580	96.086000
63.615308	2.189998	96.133000
63.645958	2.174172	96.180000
63.676607	2.133983	96.226000
63.707760	2.176219	96.272000
63.738551	2.225447	96.319000
63.770295	2.193951	96.366000
63.801375	2.182981	96.411000
63.832923	2.232956	96.458000
63.863004	2.245490	96.505000
63.895075	2.227694	96.551000
63.925224	2.281151	96.597000
63.956396	2.341165	96.644000
63.985709	2.317276	96.690000
64.017003	2.304116	96.736000
64.122067	2.343724	96.782000
64.153043	2.306622	96.939000
64.184614	2.338196	96.985000
64.287611	2.400899	97.032000
64.317964	2.367962	97.187000
64.348206	2.340816	97.233000
64.379390	2.377933	97.280000
64.410704	2.375696	97.326000
64.441188	2.303625	97.372000
64.472817	2.285429	97.418000
64.503535	2.314078	97.464000
64.534676	2.283175	97.510000
64.564427	2.256280	97.556000
64.595606	2.304557	97.602000
64.625710	2.344701	97.649000
64.657281	2.313168	97.695000
64.687569	2.321051	97.742000
64.719233	2.387740	97.788000
64.750174	2.388896	97.834000
64.855829	2.356253	97.880000
64.887354	2.451300	98.039000
64.917842	2.479256	98.085000
65.020340	2.468673	98.132000
65.050759	2.493507	98.287000
65.082537	2.448078	98.333000
65.113448	2.379689	98.378000
65.144374	2.391134	98.425000
65.175738	2.414887	98.472000
65.206341	2.367519	98.518000
65.237059	2.337936	98.564000
65.266625	2.383105	98.610000
65.297659	2.390810	98.657000
65.328692	2.354170	98.703000
65.360279	2.380392	98.749000
65.391189	2.441406	98.796000
65.422653	2.438840	98.842000
65.453218	2.442340	98.888000
65.484912	2.518944	98.935000
65.730998	2.557158	98.981000
65.761655	2.320205	99.352000
65.793119	2.276510	99.398000
65.823952	2.301267	99.444000
65.853864	2.297617	99.490000
65.883745	2.259007	99.537000
65.915301	2.276728	99.583000
65.947057	2.302631	99.629000
65.977837	2.263296	99.676000
66.009354	2.247512	99.722000
66.039842	2.297301	99.768000
66.071613	2.316745	99.815000
66.101302	2.286271	99.861000
66.132120	2.314038	99.907000
66.162685	2.378588	99.954000
66.193557	2.369747	100.000000
66.223423	2.351167	100.045000
66.328732	2.399157	100.092000
66.359758	2.456955	100.248000
66.390738	2.523126	100.295000
66.635571	2.601022	100.341000
66.666413	2.559725	100.708000
66.696678	2.593147	100.755000
66.727465	2.628191	100.801000
66.758437	2.589687	100.847000
66.789609	2.579001	100.893000
66.820389	2.616008	100.939000
66.851569	2.592151	100.986000
66.882802	2.553087	101.032000
66.913228	2.590442	101.078000
66.943225	2.626138	101.124000
67.055411	2.590045	101.170000
67.087036	2.627879	101.339000
67.118492	2.621586	101.385000
67.220590	2.651915	101.432000
67.251416	2.708778	101.586000
67.281896	2.736711	101.632000
67.312806	2.691264	101.679000
67.344109	2.698166	101.725000
67.375434	2.755640	101.771000
67.406606	2.771977	101.817000
67.437355	2.784583	101.864000
67.468573	2.867373	101.910000
67.498600	2.932225	101.956000
67.528550	2.923017	102.002000
67.559499	2.951406	102.049000
67.590848	3.039167	102.095000
67.621835	3.065341	102.140000
67.651939	3.045687	102.187000
67.683126	3.087308	102.233000
67.789972	3.139381	102.279000
67.821129	3.187071	102.439000
67.851332	3.159848	102.485000
67.954152	3.164609	102.530000
67.984863	3.111560	102.686000
68.015866	3.137597	102.732000
68.046769	3.184722	102.779000
68.078463	3.156852	102.825000
68.109304	3.155604	102.870000
68.138401	3.222804	102.917000
68.169450	3.250405	102.964000
68.200253	3.230288	103.010000
68.231894	3.264856	103.056000
68.261944	3.332261	103.102000
68.293899	3.323853	103.149000
68.324618	3.314889	103.195000
68.356058	3.374366	103.241000
68.386754	3.418259	103.288000
68.418018	3.387125	103.334000
68.523804	3.378558	103.381000
68.553492	3.393997	103.539000
68.584180	3.462157	103.585000
68.688222	3.503451	103.632000
68.719325	3.535209	103.787000
68.750911	3.499833	103.833000
68.781799	3.515027	103.880000
68.812241	3.576013	103.926000
68.842098	3.568556	103.972000
68.873916	3.550529	104.019000
68.904588	3.610899	104.065000
68.935368	3.674047	104.112000
68.965917	3.673523	104.158000
68.997911	3.712737	104.204000
69.028614	3.804913	104.250000
69.059825	3.841196	104.297000
69.090236	3.842939	104.343000
69.122137	3.900551	104.390000
69.151688	3.960234	104.435000
69.398319	3.946764	104.482000
69.428730	4.131829	104.852000
69.459487	4.183165	104.898000
69.490106	4.213289	104.944000
69.521608	4.189589	104.990000
69.552050	4.211775	105.037000
69.583729	4.262088	105.083000
69.614739	4.237850	105.130000
69.646364	4.197302	105.176000
69.676376	4.228928	105.222000
69.708247	4.270506	105.269000
69.737905	4.273700	105.316000
69.768992	4.305673	105.362000
69.799542	4.382189	105.408000
69.831244	4.409410	105.455000
69.862169	4.398978	105.501000
69.893610	4.429178	105.548000
69.998074	4.445788	105.594000
70.028255	4.401534	105.750000
70.059642	4.379717	105.796000
70.304329	4.462544	105.843000
70.334325	4.512245	106.210000
70.365290	4.562726	106.256000
70.396070	4.537931	106.303000
70.428056	4.541705	106.349000
70.458974	4.620324	106.396000
70.490200	4.645022	106.442000
70.521233	4.631916	106.489000
70.552182	4.699486	106.535000
70.582824	4.779225	106.581000
70.612889	4.794077	106.628000
70.724307	4.809397	106.674000
70.755356	4.891889	106.839000
70.785821	4.963550	106.885000
70.887972	5.045745	106.932000
70.919098	5.113230	107.087000
70.950293	5.112779	107.133000
70.980835	5.131424	107.180000
71.012875	5.213218	107.226000
71.043885	5.261743	107.272000
71.074619	5.253301	107.318000
71.103808	5.299893	107.365000
71.135072	5.370707	107.411000
71.166620	5.364009	107.457000
71.197270	5.358866	107.504000
71.228057	5.425234	107.550000
71.259145	5.470723	107.595000
71.290363	5.455342	107.642000
71.321020	5.482296	107.688000
71.352453	5.563896	107.735000
71.456671	5.587740	107.781000
71.487950	5.759564	107.939000
71.518707	5.748554	107.986000
71.622557	5.869643	108.032000
71.653752	5.918584	108.187000
71.684040	6.012522	108.233000
71.715834	6.030904	108.279000
71.746015	6.040835	108.326000
71.776656	6.137683	108.372000
71.807006	6.229343	108.418000
71.838078	6.239484	108.465000
71.869311	6.278026	108.511000
71.900298	6.386654	108.558000
71.931178	6.443975	108.604000
71.962634	6.448044	108.650000
71.993775	6.503012	108.696000
72.024425	6.549505	108.743000
72.054229	6.510301	108.789000
72.084832	6.492661	108.835000
72.190687	6.558260	108.881000
72.221651	6.620110	109.039000
72.252454	6.671274	109.085000
72.356765	6.755250	109.132000
72.387798	6.745633	109.287000
72.417871	6.747928	109.333000
72.448974	6.831380	109.380000
72.479101	6.873434	109.426000
72.510188	6.852695	109.473000
72.541636	6.897533	109.519000
72.572754	6.997674	109.565000
72.603803	7.034628	109.612000
72.634614	7.062262	109.658000
72.665893	7.158916	109.704000
72.697142	7.228992	109.750000
72.726546	7.211125	109.796000
72.757004	7.223442	109.843000
72.788014	7.306367	109.889000
72.819462	7.326291	109.936000
73.065356	7.305531	109.982000
73.096620	7.586964	110.352000
73.127408	7.688170	110.398000
73.159110	7.713584	110.444000
73.190189	7.729640	110.490000
73.220800	7.831386	110.537000
73.251565	7.920335	110.583000
73.282721	7.915416	110.630000
73.312648	7.943664	110.676000
73.343566	8.030905	110.723000
73.374246	8.054204	110.769000
73.405518	8.052250	110.815000
73.436536	8.127664	110.861000
73.467431	8.215928	110.908000
73.498688	8.214943	110.954000
73.529560	8.234602	110.999000
73.559902	8.335752	111.046000
73.662952	8.389901	111.092000
73.694109	8.591402	111.248000
73.724650	8.594738	111.294000
73.970129	8.979218	111.341000
74.000932	9.073767	111.708000
74.031904	9.145624	111.754000
74.062692	9.150657	111.800000
74.093380	9.224911	111.846000
74.123560	9.355544	111.892000
74.154232	9.414086	111.938000
74.185005	9.433518	111.985000
74.216438	9.533247	112.030000
74.247118	9.630433	112.077000
74.279142	9.634375	112.124000
74.391190	9.654866	112.170000
74.421056	9.852233	112.339000
74.452573	9.958451	112.386000
74.555831	10.103766	112.432000
74.587779	10.177119	112.587000
74.618459	10.175343	112.632000
74.649208	10.222915	112.679000
74.678874	10.338522	112.725000
74.709331	10.400294	112.772000
74.740588	10.435589	112.818000
74.771352	10.563862	112.864000
74.802939	10.703872	112.910000
74.834011	10.740646	112.957000
74.865037	10.789086	113.003000
74.895486	10.910927	113.050000
74.927457	10.984068	113.096000
74.957200	11.004921	113.141000
74.987035	11.099242	113.187000
75.016846	11.224411	113.233000
75.125429	11.263631	113.279000
75.156163	11.519335	113.439000
75.186912	11.534194	113.485000
75.290785	11.754661	113.531000
75.319997	11.844758	113.686000
75.351038	11.970600	113.732000
75.381342	12.004535	113.778000
75.412614	12.047143	113.824000
75.444131	12.194271	113.871000
75.475341	12.315045	113.917000
75.505837	12.347860	113.963000
75.537393	12.444651	114.009000
75.568449	12.598579	114.056000
75.598315	12.669056	114.102000
75.628196	12.698201	114.148000
75.658914	12.837238	114.194000
75.690463	13.003210	114.240000
75.721604	13.067373	114.287000
75.752660	13.145991	114.333000
75.858615	13.307944	114.379000
75.890501	13.650814	114.539000
75.921842	13.779722	114.586000
76.023702	14.083173	114.632000
76.054382	14.106918	114.787000
76.084732	14.157115	114.833000
76.115996	14.307161	114.879000
76.147797	14.406108	114.926000
76.179054	14.425493	114.972000
76.209588	14.539392	115.019000
76.241174	14.698326	115.065000
76.272246	14.756270	115.111000
76.301474	14.817490	115.157000
76.331509	15.011727	115.203000
76.363126	15.191079	115.250000
76.394959	15.252739	115.296000
76.425785	15.350624	115.342000
76.456073	15.529499	115.389000
76.487813	15.626987	115.435000
76.734329	15.665842	115.482000
76.765432	16.460276	115.852000
76.796342	16.625050	115.898000
76.827676	16.681069	115.945000
76.858287	16.696145	115.990000
76.888506	16.832377	116.037000
76.918571	16.965971	116.083000
76.950211	16.978041	116.129000
76.981068	17.050660	116.176000
77.012417	17.241872	116.222000
77.043250	17.354828	116.269000
77.074753	17.403744	116.316000
77.105924	17.565063	116.362000
77.136681	17.745420	116.409000
77.167184	17.800760	116.455000
77.197818	17.885302	116.501000
77.228522	18.088627	116.548000
77.332993	18.229920	116.594000
77.363743	18.698002	116.749000
77.394630	18.779376	116.795000
77.639233	19.967537	116.842000
77.670459	20.202476	117.209000
77.701815	20.410213	117.255000
77.731588	20.494738	117.302000
77.761830	20.649232	117.348000
77.793617	20.904787	117.395000
77.824481	21.044266	117.441000
77.855415	21.095503	117.486000
77.886333	21.270812	117.533000
77.917551	21.456632	117.579000
77.948139	21.499182	117.625000
78.059003	21.552520	117.670000
78.090436	22.001319	117.839000
78.121500	22.230243	117.886000
78.224566	22.679186	117.932000
78.255623	22.888081	118.087000
78.286410	22.948857	118.133000
78.316568	23.087400	118.179000
78.347548	23.343988	118.226000
78.378481	23.485995	118.272000
78.409576	23.543278	118.318000
78.441148	23.739452	118.365000
78.471467	23.964696	118.411000
78.503660	24.031752	118.457000
78.533795	24.115247	118.504000
78.564552	24.335275	118.550000
78.593849	24.485444	118.597000
78.625643	24.521698	118.643000
78.656254	24.671460	118.689000
78.687748	24.898517	118.735000
78.793426	24.976406	118.781000
78.823976	25.486970	118.940000
78.856223	25.527790	118.986000
78.957514	25.981281	119.032000
78.988548	26.112795	119.186000
79.019512	26.334080	119.233000
79.050269	26.415452	119.279000
79.081625	26.464785	119.325000
79.112551	26.683550	119.371000
79.143585	26.879926	119.417000
79.173604	26.922476	119.464000
79.204607	27.050546	119.509000
79.234295	27.310420	119.556000
79.265767	27.442213	119.602000
79.296385	27.492130	119.648000
79.328087	27.704176	119.695000
79.358983	27.936192	119.741000
79.391046	27.989630	119.788000
79.421165	28.073571	119.834000
79.526674	28.310911	119.881000
79.558207	28.857698	120.040000
79.587427	29.072639	120.085000
79.691038	29.715798	120.131000
79.721964	29.800202	120.286000
79.753082	29.906354	120.332000
79.784223	30.181222	120.378000
79.815249	30.357102	120.425000
79.845576	30.407648	120.471000
79.875603	30.605239	120.517000
79.906851	30.873333	120.563000
79.937693	30.983912	120.610000
79.968918	31.100358	120.655000
80.000006	31.393747	120.702000
80.031031	31.619752	120.749000
80.061604	31.700306	120.795000
80.093152	31.920085	120.841000
80.122203	32.246931	120.887000
80.153859	32.421757	120.933000
80.402795	32.556254	120.980000
80.433798	34.349307	121.352000
80.463971	34.644420	121.398000
80.494313	34.704241	121.445000
80.525154	34.800942	121.491000
80.556518	35.062024	121.537000
80.587498	35.203697	121.584000
80.618969	35.211736	121.630000
80.649949	35.404521	121.677000
80.681567	35.662018	121.723000
80.711386	35.719012	121.769000
80.742565	35.816492	121.816000
80.772470	36.129561	121.862000
80.803395	36.373173	121.908000
80.833422	36.454399	121.955000
80.865462	36.691511	122.001000
80.896273	37.043866	122.047000
81.000868	37.229698	122.094000
81.032155	38.111459	122.249000
81.062574	38.237669	122.296000
81.306132	40.214992	122.342000
81.336812	40.606243	122.708000
81.367868	40.807423	122.755000
81.399002	40.964766	122.801000
81.429205	41.310425	122.846000
81.460623	41.622614	122.893000
81.491902	41.743723	122.939000
81.522728	41.980026	122.985000
81.552486	42.372287	123.032000
81.583566	42.608316	123.078000
81.614461	42.787723	123.125000
81.727738	43.180358	123.171000
81.758810	44.288606	123.340000
81.789736	44.636195	123.386000
81.891503	45.472169	123.433000
81.921776	45.580156	123.587000
81.953570	45.685265	123.633000
81.985026	45.982422	123.679000
82.015376	46.165307	123.725000
82.046525	46.168267	123.771000
82.078065	46.349450	123.818000
82.108146	46.669636	123.864000
82.137943	46.769682	123.910000
82.168530	46.829731	123.957000
82.200286	47.152942	124.003000
82.231204	47.428668	124.050000
82.262384	47.490412	124.096000
82.293632	47.677401	124.142000
82.324412	48.014014	124.188000
82.355192	48.161594	124.234000
82.461255	48.224538	124.280000
82.491981	48.963680	124.440000
