Sample	2mm tape 2
date	08/01/2025
	
Temperature (K)	77.00
Angle (deg.)	0.000000
field / T	0.000000
	
		
Approx. trace time (s)	180.0	
		
Current / A	V1  -sample/ uV	time/s
0.001780	-1.892223	0.000000
0.002072	-1.863992	0.110000
0.002007	-1.845346	0.157000
0.002007	-1.832461	0.203000
0.002102	-1.823790	0.250000
0.002096	-1.817170	0.296000
0.001983	-1.811021	0.342000
0.002090	-1.805261	0.389000
0.001941	-1.796158	0.435000
0.001816	-1.778912	0.481000
0.001977	-1.758190	0.527000
0.001810	-1.737846	0.574000
0.001899	-1.713004	0.620000
0.001822	-1.691496	0.666000
0.001517	-1.667598	0.713000
0.012215	-1.638658	0.758000
0.062733	-1.610020	0.805000
0.076911	-1.513545	0.966000
0.091053	-1.501615	1.013000
0.137594	-1.498157	1.059000
0.151489	-1.507585	1.214000
0.165895	-1.519922	1.260000
0.180488	-1.530694	1.307000
0.194430	-1.537894	1.353000
0.208372	-1.538797	1.399000
0.221937	-1.540216	1.444000
0.235949	-1.545035	1.490000
0.249775	-1.528594	1.535000
0.263929	-1.509223	1.581000
0.277744	-1.498839	1.627000
0.292211	-1.479689	1.673000
0.306490	-1.452458	1.719000
0.320596	-1.431076	1.766000
0.334864	-1.420040	1.812000
0.348982	-1.416940	1.858000
0.463359	-1.406912	1.904000
0.477702	-1.402817	2.279000
0.491658	-1.412118	2.325000
0.504845	-1.400146	2.370000
0.519005	-1.365273	2.417000
0.533159	-1.331702	2.463000
0.547494	-1.313463	2.510000
0.561691	-1.324798	2.556000
0.576197	-1.346491	2.603000
0.590321	-1.353343	2.648000
0.604338	-1.345704	2.694000
0.618501	-1.340922	2.741000
0.632281	-1.349309	2.786000
0.646875	-1.361530	2.832000
0.660309	-1.367103	2.879000
0.675044	-1.369625	2.925000
0.688573	-1.355300	2.972000
0.736882	-1.347996	3.018000
0.750816	-1.342088	3.174000
0.765382	-1.344749	3.220000
0.877643	-1.286366	3.266000
0.891872	-1.304537	3.634000
0.905162	-1.295571	3.680000
0.919618	-1.285662	3.726000
0.933874	-1.305083	3.773000
0.948067	-1.325900	3.819000
0.962398	-1.330260	3.866000
0.976304	-1.333627	3.912000
0.990382	-1.343370	3.958000
1.005122	-1.354940	4.005000
1.018679	-1.367994	4.051000
1.070982	-1.384484	4.097000
1.085214	-1.493259	4.266000
1.099021	-1.525869	4.313000
1.146446	-1.592383	4.359000
1.160053	-1.605322	4.514000
1.174545	-1.615157	4.560000
1.188132	-1.624018	4.607000
1.202762	-1.626651	4.653000
1.216596	-1.626557	4.700000
1.231447	-1.609137	4.746000
1.245230	-1.589718	4.792000
1.259677	-1.587713	4.839000
1.273617	-1.596902	4.885000
1.288076	-1.599094	4.931000
1.302170	-1.586823	4.977000
1.315611	-1.562055	5.024000
1.329812	-1.517243	5.070000
1.344343	-1.470167	5.116000
1.358825	-1.444375	5.162000
1.406844	-1.440835	5.209000
1.421240	-1.508761	5.366000
1.435081	-1.531368	5.413000
1.481741	-1.554683	5.459000
1.496065	-1.573557	5.614000
1.509823	-1.588324	5.660000
1.525128	-1.605196	5.706000
1.539534	-1.624028	5.752000
1.553216	-1.644467	5.799000
1.567426	-1.666809	5.845000
1.581467	-1.688285	5.892000
1.595717	-1.702494	5.939000
1.609734	-1.716252	5.985000
1.623697	-1.725563	6.031000
1.638228	-1.725219	6.078000
1.652445	-1.709469	6.124000
1.666733	-1.679097	6.171000
1.680825	-1.648766	6.217000
1.695290	-1.620421	6.264000
1.743011	-1.595966	6.310000
1.757406	-1.554025	6.466000
1.770838	-1.554588	6.511000
1.818204	-1.550471	6.558000
1.832453	-1.548288	6.712000
1.846840	-1.556938	6.759000
1.860558	-1.573580	6.805000
1.874879	-1.583512	6.852000
1.888509	-1.591290	6.898000
1.902589	-1.601726	6.945000
1.916823	-1.613062	6.991000
1.930807	-1.625685	7.038000
1.945192	-1.641816	7.084000
1.959556	-1.659397	7.130000
1.973629	-1.680811	7.177000
1.987840	-1.701278	7.223000
2.002201	-1.726122	7.268000
2.015920	-1.733861	7.315000
2.030354	-1.727297	7.362000
2.144201	-1.720888	7.408000
2.157886	-1.803732	7.779000
2.172139	-1.819919	7.825000
2.186403	-1.820876	7.871000
2.199823	-1.813433	7.918000
2.214070	-1.816189	7.964000
2.229016	-1.835286	8.010000
2.243024	-1.855117	8.057000
2.256607	-1.856421	8.102000
2.271036	-1.841768	8.149000
2.285411	-1.808831	8.195000
2.299069	-1.783806	8.240000
2.313004	-1.781989	8.287000
2.326694	-1.774716	8.333000
2.341212	-1.767432	8.379000
2.355271	-1.768988	8.425000
2.369843	-1.763552	8.471000
2.416981	-1.743927	8.518000
2.430725	-1.642589	8.673000
2.444632	-1.608529	8.719000
2.556850	-1.661187	8.766000
2.571954	-1.681647	9.133000
2.586324	-1.704635	9.179000
2.599882	-1.734909	9.225000
2.614096	-1.771332	9.271000
2.628148	-1.812593	9.318000
2.642422	-1.843725	9.364000
2.656597	-1.859931	9.411000
2.670359	-1.870223	9.457000
2.683997	-1.871192	9.503000
2.698836	-1.868867	9.549000
2.751289	-1.874868	9.596000
2.765290	-2.001717	9.765000
2.779206	-2.033731	9.812000
2.826121	-2.114239	9.858000
2.840290	-2.126971	10.013000
2.854402	-2.123539	10.059000
2.868723	-2.108072	10.105000
2.883457	-2.084924	10.152000
2.897533	-2.055531	10.198000
2.911901	-2.020957	10.245000
2.925944	-1.984298	10.291000
2.940143	-1.943426	10.338000
2.953733	-1.894996	10.384000
2.967738	-1.849178	10.430000
2.982678	-1.811015	10.476000
2.997033	-1.776890	10.523000
3.011196	-1.747826	10.569000
3.025140	-1.722857	10.615000
3.039229	-1.701392	10.661000
3.086989	-1.685453	10.708000
3.101197	-1.689700	10.867000
3.115805	-1.685622	10.913000
3.163187	-1.635353	10.960000
3.177439	-1.615976	11.114000
3.191430	-1.598968	11.160000
3.205628	-1.568054	11.207000
3.219993	-1.546472	11.253000
3.234209	-1.537074	11.300000
3.248140	-1.533797	11.346000
3.262022	-1.527773	11.392000
3.276029	-1.512134	11.439000
3.290323	-1.504270	11.485000
3.304435	-1.504955	11.531000
3.318446	-1.498417	11.577000
3.332701	-1.481435	11.623000
3.347343	-1.457439	11.670000
3.361084	-1.437879	11.716000
3.374856	-1.427945	11.763000
3.423512	-1.429122	11.809000
3.437461	-1.463965	11.967000
3.451875	-1.485050	12.013000
3.499050	-1.534467	12.059000
3.513470	-1.495634	12.214000
3.527381	-1.446846	12.260000
3.541184	-1.410444	12.307000
3.555272	-1.398170	12.353000
3.569147	-1.398264	12.399000
3.583604	-1.374343	12.445000
3.597522	-1.344147	12.491000
3.611850	-1.329506	12.537000
3.626088	-1.326067	12.583000
3.640803	-1.333057	12.630000
3.655261	-1.339913	12.677000
3.668629	-1.347017	12.722000
3.682858	-1.360208	12.769000
3.696746	-1.376213	12.816000
3.711280	-1.391189	12.862000
3.824651	-1.406680	12.907000
3.838728	-1.544286	13.279000
3.852639	-1.561582	13.325000
3.867241	-1.577741	13.372000
3.881801	-1.595087	13.418000
3.895745	-1.609734	13.465000
3.909674	-1.615649	13.511000
3.923968	-1.610502	13.556000
3.938328	-1.607816	13.603000
3.951493	-1.602449	13.650000
3.965686	-1.588083	13.696000
3.980320	-1.570309	13.742000
3.994626	-1.551800	13.789000
4.008844	-1.539859	13.835000
4.022875	-1.535361	13.882000
4.037349	-1.545162	13.927000
4.051526	-1.555573	13.974000
4.098507	-1.544181	14.020000
4.113128	-1.452005	14.175000
4.127307	-1.422089	14.222000
4.238953	-1.303070	14.268000
4.253027	-1.282442	14.635000
4.267017	-1.142191	14.681000
4.281939	-1.350105	14.728000
4.296267	-1.301118	14.774000
4.310236	-1.302596	14.821000
4.323937	-1.303467	14.867000
4.338091	-1.302293	14.914000
4.352311	-1.299775	14.960000
4.366556	-1.294386	15.006000
4.380460	-1.291347	15.052000
4.432196	-1.294072	15.099000
4.446007	-1.330449	15.267000
4.460069	-1.344103	15.313000
4.507715	-1.375277	15.359000
4.522554	-1.388426	15.514000
4.536430	-1.400387	15.560000
4.550196	-1.411075	15.607000
4.564380	-1.417686	15.653000
4.578815	-1.412074	15.699000
4.592432	-1.413557	15.746000
4.606675	-1.424705	15.791000
4.621257	-1.437450	15.838000
4.635679	-1.451480	15.884000
4.649558	-1.471945	15.931000
4.663414	-1.488476	15.977000
4.677187	-1.497355	16.023000
4.691936	-1.509338	16.069000
4.705711	-1.519678	16.116000
4.719294	-1.530779	16.162000
4.767545	-1.539239	16.208000
4.782114	-1.535297	16.367000
4.796026	-1.549317	16.413000
4.844010	-1.591974	16.459000
4.858342	-1.613426	16.614000
4.872589	-1.638447	16.660000
4.886271	-1.669494	16.707000
4.900055	-1.702462	16.753000
4.914711	-1.734490	16.800000
4.929080	-1.746466	16.846000
4.943617	-1.753399	16.892000
4.957380	-1.766757	16.939000
4.971340	-1.779255	16.985000
4.985551	-1.791037	17.031000
5.000059	-1.804575	17.078000
5.013689	-1.821610	17.124000
5.027159	-1.838995	17.170000
5.041813	-1.857418	17.216000
5.056138	-1.879273	17.261000
5.104696	-1.903665	17.308000
5.119026	-1.981699	17.466000
5.132732	-1.999734	17.513000
5.180108	-2.041509	17.558000
5.193893	-2.050014	17.714000
5.207518	-2.059212	17.760000
5.222692	-2.074803	17.807000
5.236646	-2.092763	17.854000
5.250735	-2.093666	17.900000
5.264976	-2.097429	17.945000
5.279743	-2.097313	17.992000
5.294110	-2.068659	18.038000
5.307334	-2.033069	18.084000
5.321579	-2.003467	18.131000
5.335714	-1.977796	18.177000
5.350006	-1.953472	18.224000
5.364059	-1.931968	18.270000
5.378405	-1.915447	18.316000
5.392644	-1.896761	18.363000
5.505309	-1.855115	18.409000
5.519831	-1.657516	18.779000
5.534120	-1.663862	18.825000
5.547756	-1.680156	18.871000
5.561669	-1.697272	18.917000
5.575494	-1.718496	18.962000
5.589183	-1.738316	19.008000
5.603498	-1.745437	19.053000
5.617164	-1.749051	19.099000
5.631141	-1.756238	19.145000
5.645719	-1.771501	19.191000
5.658810	-1.775820	19.237000
5.673072	-1.770479	19.283000
5.687119	-1.770911	19.330000
5.701720	-1.783532	19.376000
5.715585	-1.799751	19.423000
5.730041	-1.814035	19.469000
5.778021	-1.829576	19.515000
5.792035	-1.875753	19.671000
5.806647	-1.887857	19.718000
5.917830	-1.820484	19.764000
5.932629	-1.814202	20.130000
5.946472	-1.806507	20.177000
5.960097	-1.795671	20.224000
5.975025	-1.781967	20.270000
5.989386	-1.765758	20.316000
6.003614	-1.748761	20.363000
6.017243	-1.727169	20.409000
6.032034	-1.702725	20.455000
6.046077	-1.676175	20.501000
6.059984	-1.648271	20.548000
6.112407	-1.622403	20.594000
6.126358	-1.603760	20.767000
6.140735	-1.617989	20.814000
6.188612	-1.686093	20.860000
6.203023	-1.709467	21.015000
6.217242	-1.732065	21.061000
6.231411	-1.757086	21.108000
6.245085	-1.783353	21.154000
6.259331	-1.805761	21.200000
6.273803	-1.827525	21.247000
6.287672	-1.846267	21.294000
6.301704	-1.858267	21.340000
6.315951	-1.868014	21.386000
6.330553	-1.871440	21.432000
6.344976	-1.865450	21.479000
6.358981	-1.848411	21.526000
6.372330	-1.818203	21.572000
6.386652	-1.781660	21.618000
6.400813	-1.747290	21.664000
6.449091	-1.716166	21.710000
6.463584	-1.610103	21.867000
6.477800	-1.563648	21.913000
6.524689	-1.400713	21.960000
6.538182	-1.361877	22.114000
6.552321	-1.329318	22.160000
6.566407	-1.299105	22.206000
6.580779	-1.270279	22.253000
6.594810	-1.248845	22.299000
6.609268	-1.227630	22.346000
6.623823	-1.203024	22.392000
6.638060	-1.177573	22.439000
6.651375	-1.151326	22.484000
6.665822	-1.136111	22.531000
6.679701	-1.132733	22.577000
6.694142	-1.142107	22.623000
6.707962	-1.151076	22.669000
6.722677	-1.137947	22.716000
6.736739	-1.114666	22.762000
6.784857	-1.092012	22.808000
6.798907	-1.005799	22.966000
6.812772	-0.982370	23.012000
6.860130	-1.035510	23.058000
6.874486	-1.078750	23.213000
6.888605	-1.123737	23.259000
6.902888	-1.171658	23.306000
6.917476	-1.218774	23.352000
6.931691	-1.265757	23.399000
6.945456	-1.314466	23.445000
6.959563	-1.360059	23.491000
6.973485	-1.400470	23.537000
6.987966	-1.434388	23.584000
7.001853	-1.463858	23.630000
7.016190	-1.484259	23.676000
7.030560	-1.496029	23.723000
7.044789	-1.504817	23.769000
7.058833	-1.507140	23.816000
7.072733	-1.508054	23.862000
7.186198	-1.512291	23.909000
7.200436	-1.534740	24.279000
7.214775	-1.559903	24.326000
7.228795	-1.576401	24.372000
7.242595	-1.584327	24.419000
7.256597	-1.586235	24.465000
7.271159	-1.588050	24.512000
7.285345	-1.591415	24.557000
7.299126	-1.593187	24.603000
7.313151	-1.596952	24.649000
7.327355	-1.600694	24.694000
7.341148	-1.604576	24.740000
7.354467	-1.599330	24.786000
7.368556	-1.593680	24.832000
7.383009	-1.599425	24.878000
7.397771	-1.618091	24.925000
7.411867	-1.640177	24.970000
7.459416	-1.659456	25.017000
7.473110	-1.689596	25.172000
7.486959	-1.685591	25.219000
7.598718	-1.525616	25.265000
7.613421	-1.513563	25.632000
7.628197	-1.502136	25.678000
7.642322	-1.483556	25.725000
7.656387	-1.454947	25.771000
7.670166	-1.425547	25.817000
7.684566	-1.404989	25.864000
7.698875	-1.392083	25.910000
7.712575	-1.389856	25.956000
7.726539	-1.391222	26.003000
7.740808	-1.396855	26.049000
7.793381	-1.401848	26.095000
7.807754	-1.392273	26.267000
7.822054	-1.373615	26.313000
7.869249	-1.323560	26.360000
7.883141	-1.306466	26.514000
7.897457	-1.287623	26.561000
7.911449	-1.281846	26.607000
7.925976	-1.290704	26.653000
7.940029	-1.303456	26.700000
7.954146	-1.309110	26.746000
7.968354	-1.307409	26.792000
7.982956	-1.308625	26.838000
7.996458	-1.315098	26.885000
8.010161	-1.316230	26.931000
8.024259	-1.302063	26.978000
8.038834	-1.287791	27.024000
8.053169	-1.286343	27.070000
8.067535	-1.288291	27.117000
8.081562	-1.295538	27.163000
8.129729	-1.304201	27.210000
8.143649	-1.297784	27.367000
8.158204	-1.281740	27.413000
8.204966	-1.204386	27.459000
8.219807	-1.200462	27.614000
8.233722	-1.199478	27.661000
8.248026	-1.196373	27.707000
8.262063	-1.204667	27.754000
8.276795	-1.224256	27.800000
8.290671	-1.244259	27.846000
8.304355	-1.250060	27.893000
8.318105	-1.239962	27.938000
8.332924	-1.228541	27.985000
8.346568	-1.221319	28.030000
8.360976	-1.213634	28.076000
8.374947	-1.202643	28.123000
8.389322	-1.185027	28.168000
8.403440	-1.167790	28.215000
8.417236	-1.158331	28.261000
8.465640	-1.157805	28.308000
8.479222	-1.220387	28.467000
8.493616	-1.243201	28.513000
8.541413	-1.337884	28.560000
8.555478	-1.366868	28.714000
8.570168	-1.392459	28.760000
8.584205	-1.412367	28.806000
8.597544	-1.426514	28.852000
8.611467	-1.440368	28.898000
8.626189	-1.452466	28.945000
8.640099	-1.465657	28.991000
8.654181	-1.483963	29.036000
8.668025	-1.491689	29.084000
8.682635	-1.485930	29.130000
8.697230	-1.479276	29.176000
8.711480	-1.485720	29.223000
8.725152	-1.503071	29.269000
8.739347	-1.523535	29.316000
8.753096	-1.538514	29.362000
8.866774	-1.547005	29.408000
8.880523	-1.568953	29.779000
8.894450	-1.581924	29.825000
8.909046	-1.592223	29.871000
8.923308	-1.602897	29.917000
8.937692	-1.606534	29.964000
8.951959	-1.605412	30.010000
8.966012	-1.601358	30.057000
8.980327	-1.587441	30.103000
8.994123	-1.568085	30.149000
9.007891	-1.547435	30.196000
9.021869	-1.535781	30.242000
9.036630	-1.531723	30.288000
9.050453	-1.535654	30.333000
9.065276	-1.546851	30.380000
9.079201	-1.565985	30.427000
9.093394	-1.579755	30.473000
9.139927	-1.576942	30.519000
9.154295	-1.551506	30.674000
9.168378	-1.560082	30.721000
9.281018	-1.653273	30.767000
9.295175	-1.669461	31.134000
9.309052	-1.683564	31.180000
9.323756	-1.698047	31.227000
9.338014	-1.709067	31.273000
9.351592	-1.723644	31.319000
9.365790	-1.731488	31.365000
9.379408	-1.739498	31.412000
9.393838	-1.742614	31.458000
9.408183	-1.741608	31.504000
9.421902	-1.740223	31.550000
9.474258	-1.737223	31.597000
9.487815	-1.721967	31.767000
9.502572	-1.713117	31.813000
9.549372	-1.683399	31.859000
9.563631	-1.666778	32.014000
9.577857	-1.647622	32.060000
9.592146	-1.626712	32.106000
9.606196	-1.615513	32.153000
9.620413	-1.610384	32.199000
9.634138	-1.604177	32.246000
9.648215	-1.597539	32.292000
9.661980	-1.589455	32.338000
9.676720	-1.578349	32.384000
9.690893	-1.555814	32.431000
9.705091	-1.529149	32.477000
9.719100	-1.509705	32.524000
9.733810	-1.491764	32.570000
9.748017	-1.467203	32.616000
9.762041	-1.446749	32.662000
9.810259	-1.430098	32.709000
9.824046	-1.369233	32.867000
9.838099	-1.342022	32.913000
9.885491	-1.311774	32.960000
9.899942	-1.310021	33.114000
9.914251	-1.313103	33.160000
9.927979	-1.320392	33.206000
9.942218	-1.330303	33.253000
9.955419	-1.339050	33.299000
9.970283	-1.351123	33.345000
9.984843	-1.362528	33.391000
9.999058	-1.370842	33.438000
10.013288	-1.376696	33.484000
10.027516	-1.386261	33.531000
10.041529	-1.395741	33.577000
10.055710	-1.401331	33.623000
10.069814	-1.405326	33.670000
10.083347	-1.416109	33.716000
10.098438	-1.424201	33.762000
10.146180	-1.430192	33.809000
10.160336	-1.454211	33.967000
10.174351	-1.474841	34.013000
10.221991	-1.524880	34.059000
10.236302	-1.515695	34.214000
10.249799	-1.517618	34.260000
10.263940	-1.524785	34.306000
10.278492	-1.521739	34.352000
10.292235	-1.502199	34.399000
10.306614	-1.482136	34.445000
10.321232	-1.469388	34.492000
10.335374	-1.457543	34.538000
10.349107	-1.443720	34.584000
10.363026	-1.431915	34.631000
10.376764	-1.422006	34.677000
10.391190	-1.410674	34.722000
10.405047	-1.396939	34.769000
10.419207	-1.378597	34.816000
10.433564	-1.351682	34.862000
10.547125	-1.331731	34.907000
10.561456	-1.188433	35.279000
10.576057	-1.174330	35.326000
10.589972	-1.153619	35.372000
10.604447	-1.131367	35.419000
10.618598	-1.116907	35.465000
10.632958	-1.099663	35.511000
10.646369	-1.077600	35.558000
10.660695	-1.059262	35.604000
10.675016	-1.046166	35.650000
10.689254	-1.036233	35.697000
10.703378	-1.033155	35.742000
10.717342	-1.032428	35.789000
10.731767	-1.032147	35.835000
10.746009	-1.033165	35.882000
10.759626	-1.041026	35.928000
10.774054	-1.052798	35.974000
10.821220	-1.071663	36.020000
10.835061	-1.130509	36.176000
10.849471	-1.143764	36.222000
10.961784	-1.367078	36.268000
10.976710	-1.405526	36.635000
10.990523	-1.440379	36.682000
11.004188	-1.472719	36.728000
11.018383	-1.503965	36.775000
11.032532	-1.532983	36.821000
11.046236	-1.559641	36.867000
11.060715	-1.586736	36.913000
11.074473	-1.612073	36.959000
11.089377	-1.628578	37.006000
11.103640	-1.639137	37.052000
11.154607	-1.649896	37.099000
11.169210	-1.687255	37.267000
11.183138	-1.694302	37.313000
11.230359	-1.709647	37.360000
11.244657	-1.710933	37.514000
11.258752	-1.711521	37.560000
11.272618	-1.712896	37.607000
11.286690	-1.712780	37.652000
11.300686	-1.713159	37.698000
11.314933	-1.714133	37.744000
11.329323	-1.717372	37.791000
11.343672	-1.726267	37.838000
11.357569	-1.737360	37.884000
11.371750	-1.751014	37.930000
11.386667	-1.766452	37.976000
11.400311	-1.784562	38.023000
11.413885	-1.798560	38.069000
11.427639	-1.792128	38.115000
11.442452	-1.786052	38.161000
11.490789	-1.792928	38.207000
11.505086	-1.815030	38.367000
11.519467	-1.818593	38.413000
11.567067	-1.839379	38.460000
11.580745	-1.851541	38.614000
11.594478	-1.861987	38.661000
11.608998	-1.874067	38.707000
11.623491	-1.886868	38.753000
11.638288	-1.899334	38.800000
11.651954	-1.906133	38.846000
11.666076	-1.906555	38.893000
11.680250	-1.905568	38.939000
11.694670	-1.902454	38.984000
11.708521	-1.900501	39.031000
11.722669	-1.897472	39.078000
11.736218	-1.896527	39.124000
11.750473	-1.893565	39.171000
11.764853	-1.887500	39.217000
11.779037	-1.871063	39.264000
11.827620	-1.848199	39.310000
11.841879	-1.756079	39.467000
11.856161	-1.726935	39.513000
11.902535	-1.659046	39.560000
11.916883	-1.657862	39.714000
11.930781	-1.663399	39.761000
11.944941	-1.672587	39.807000
11.959281	-1.681845	39.854000
11.973613	-1.690863	39.898000
11.987650	-1.700522	39.945000
12.001906	-1.705564	39.992000
12.015719	-1.707420	40.039000
12.029939	-1.708145	40.085000
12.044225	-1.714238	40.131000
12.057791	-1.717846	40.177000
12.072239	-1.725437	40.224000
12.086791	-1.730155	40.270000
12.101180	-1.730838	40.316000
12.115456	-1.726643	40.362000
12.228491	-1.721053	40.408000
12.242510	-1.781850	40.779000
12.256694	-1.783143	40.825000
12.270944	-1.779486	40.872000
12.284225	-1.773146	40.918000
12.298194	-1.764485	40.964000
12.312943	-1.755190	41.011000
12.327566	-1.744594	41.057000
12.341616	-1.736626	41.104000
12.355612	-1.726088	41.150000
12.369826	-1.710882	41.196000
12.384269	-1.692907	41.243000
12.398415	-1.673948	41.289000
12.412082	-1.664334	41.335000
12.425666	-1.658724	41.381000
12.440030	-1.651729	41.427000
12.454398	-1.627004	41.474000
12.502833	-1.594382	41.520000
12.516809	-1.532111	41.676000
12.530796	-1.521255	41.721000
12.642893	-1.452602	41.767000
12.656708	-1.437749	42.135000
12.670674	-1.421331	42.182000
12.684926	-1.402507	42.228000
12.698931	-1.383926	42.273000
12.712691	-1.364334	42.320000
12.727578	-1.345132	42.366000
12.741436	-1.329840	42.413000
12.755658	-1.317087	42.459000
12.769882	-1.304516	42.505000
12.783768	-1.296293	42.552000
12.835705	-1.287274	42.597000
12.850082	-1.246326	42.767000
12.864407	-1.224486	42.813000
12.911133	-1.159304	42.859000
12.924866	-1.162315	43.014000
12.938455	-1.168352	43.059000
12.952472	-1.171784	43.105000
12.967265	-1.168521	43.151000
12.981225	-1.162659	43.195000
12.995586	-1.155876	43.242000
13.009552	-1.150004	43.289000
13.023860	-1.144548	43.335000
13.037687	-1.141804	43.382000
13.051829	-1.140440	43.427000
13.065497	-1.141657	43.474000
13.080092	-1.145054	43.520000
13.094709	-1.149867	43.566000
13.108472	-1.154649	43.613000
13.122743	-1.159787	43.659000
13.171418	-1.165292	43.706000
13.185558	-1.207908	43.867000
13.200097	-1.222525	43.913000
13.246738	-1.256845	43.960000
13.261324	-1.260797	44.115000
13.275503	-1.266061	44.161000
13.289597	-1.266124	44.207000
13.303583	-1.270076	44.254000
13.318204	-1.276926	44.300000
13.332271	-1.281360	44.346000
13.346259	-1.284235	44.392000
13.359980	-1.287137	44.439000
13.374119	-1.284088	44.484000
13.388693	-1.275825	44.531000
13.402712	-1.265705	44.578000
13.416570	-1.261792	44.624000
13.431288	-1.264571	44.670000
13.445399	-1.273171	44.716000
13.459574	-1.285263	44.763000
13.508066	-1.296064	44.809000
13.522185	-1.325887	44.967000
13.535724	-1.331102	45.014000
13.583061	-1.346700	45.060000
13.597282	-1.339647	45.215000
13.611099	-1.339102	45.261000
13.626088	-1.346059	45.306000
13.639942	-1.352511	45.353000
13.653598	-1.354970	45.399000
13.667882	-1.355821	45.445000
13.681937	-1.355705	45.492000
13.696237	-1.356085	45.538000
13.710052	-1.360804	45.585000
13.724654	-1.368213	45.631000
13.739459	-1.378199	45.678000
13.753659	-1.387500	45.724000
13.767404	-1.395529	45.770000
13.782091	-1.404861	45.817000
13.795348	-1.414226	45.863000
13.909052	-1.425631	45.909000
13.923152	-1.390631	46.280000
13.936879	-1.398998	46.326000
13.950886	-1.408266	46.372000
13.965285	-1.413814	46.418000
13.979809	-1.413175	46.465000
13.993914	-1.413671	46.511000
14.007748	-1.418000	46.558000
14.022608	-1.426514	46.604000
14.036505	-1.435041	46.650000
14.050372	-1.430379	46.697000
14.064587	-1.427458	46.743000
14.078644	-1.417451	46.790000
14.092760	-1.406502	46.836000
14.106746	-1.402350	46.882000
14.120991	-1.404345	46.928000
14.135651	-1.402550	46.975000
14.182729	-1.397758	47.021000
14.197837	-1.396927	47.177000
14.211811	-1.405617	47.224000
14.323165	-1.466076	47.270000
14.337111	-1.468500	47.636000
14.351574	-1.466410	47.682000
14.365353	-1.465802	47.728000
14.380187	-1.463247	47.775000
14.394211	-1.456962	47.822000
14.408678	-1.444319	47.868000
14.422524	-1.430588	47.915000
14.437416	-1.415665	47.961000
14.450963	-1.400510	48.008000
14.464743	-1.388803	48.054000
14.516459	-1.371943	48.100000
14.530460	-1.334442	48.267000
14.544584	-1.332847	48.314000
14.591220	-1.362159	48.360000
14.605616	-1.379584	48.515000
14.620155	-1.395845	48.561000
14.634247	-1.395613	48.607000
14.648327	-1.394267	48.653000
14.662696	-1.401140	48.699000
14.676991	-1.407131	48.746000
14.690998	-1.411892	48.792000
14.704427	-1.413438	48.838000
14.718929	-1.414088	48.885000
14.733292	-1.418094	48.931000
14.747328	-1.421056	48.978000
14.761583	-1.421646	49.024000
14.775533	-1.423642	49.070000
14.790322	-1.419742	49.117000
14.804643	-1.413406	49.163000
14.852929	-1.404366	49.210000
14.866370	-1.374949	49.367000
14.880330	-1.370357	49.414000
14.927793	-1.333551	49.460000
14.941943	-1.325100	49.614000
14.956543	-1.316176	49.661000
14.970617	-1.308687	49.707000
14.984069	-1.299428	49.753000
14.997894	-1.304400	49.799000
15.012114	-1.310899	49.845000
15.027236	-1.316816	49.891000
15.041440	-1.316637	49.937000
15.055666	-1.309224	49.983000
15.069526	-1.303466	50.030000
15.084450	-1.300455	50.076000
15.098079	-1.301191	50.122000
15.112046	-1.306622	50.169000
15.125963	-1.314215	50.215000
15.140513	-1.319878	50.261000
15.189057	-1.322041	50.308000
15.203405	-1.291324	50.467000
15.217643	-1.279630	50.514000
15.265059	-1.232419	50.560000
15.279464	-1.216213	50.714000
15.293412	-1.202978	50.761000
15.307391	-1.191758	50.807000
15.321539	-1.184574	50.854000
15.335443	-1.174916	50.899000
15.349509	-1.159522	50.946000
15.363939	-1.122129	50.993000
15.378706	-1.075255	51.039000
15.392386	-1.031387	51.085000
15.406616	-0.995639	51.131000
15.420416	-0.965403	51.177000
15.435207	-0.934597	51.224000
15.448821	-0.898934	51.270000
15.463098	-0.863847	51.317000
15.477285	-0.824334	51.363000
15.589824	-0.781690	51.410000
15.604414	-0.531452	51.780000
15.618903	-0.535532	51.826000
15.632988	-0.551066	51.873000
15.646888	-0.577499	51.919000
15.661180	-0.610092	51.965000
15.675481	-0.648571	52.011000
15.689279	-0.683172	52.058000
15.703459	-0.707289	52.104000
15.717319	-0.726375	52.150000
15.732042	-0.740415	52.197000
15.745651	-0.752591	52.243000
15.760242	-0.761286	52.290000
15.774322	-0.766327	52.336000
15.789141	-0.766004	52.382000
15.803003	-0.761451	52.429000
15.817518	-0.755203	52.475000
15.864742	-0.753146	52.521000
15.878318	-0.713857	52.677000
15.892858	-0.706789	52.724000
16.004662	-0.627097	52.770000
16.019431	-0.627875	53.137000
16.033309	-0.629389	53.183000
16.047488	-0.634895	53.229000
16.060950	-0.647067	53.274000
16.075379	-0.666164	53.321000
16.089916	-0.690523	53.367000
16.103304	-0.717274	53.413000
16.117399	-0.743490	53.459000
16.131919	-0.765227	53.506000
16.146441	-0.778605	53.552000
16.198066	-0.781921	53.599000
16.211735	-0.708831	53.768000
16.225365	-0.685921	53.814000
16.273335	-0.543403	53.859000
16.287517	-0.509705	54.014000
16.301816	-0.479153	54.061000
16.316247	-0.456174	54.107000
16.330043	-0.444384	54.153000
16.343896	-0.438984	54.199000
16.357767	-0.426653	54.245000
16.372271	-0.404410	54.292000
16.385898	-0.376288	54.338000
16.400441	-0.357132	54.384000
16.414417	-0.344706	54.429000
16.428389	-0.342723	54.476000
16.442807	-0.346949	54.522000
16.456683	-0.353943	54.568000
16.470105	-0.360466	54.615000
16.484736	-0.366450	54.661000
16.533631	-0.370476	54.707000
16.548276	-0.377807	54.868000
16.562373	-0.379590	54.914000
16.609796	-0.424261	54.960000
16.623789	-0.435984	55.114000
16.637635	-0.443066	55.161000
16.651594	-0.445003	55.207000
16.666044	-0.443745	55.254000
16.680405	-0.443745	55.300000
16.694081	-0.442120	55.347000
16.708221	-0.438544	55.393000
16.722940	-0.430953	55.439000
16.737278	-0.425676	55.485000
16.751647	-0.416702	55.532000
16.764973	-0.407902	55.578000
16.779210	-0.402346	55.624000
16.793503	-0.397606	55.670000
16.807381	-0.393672	55.717000
16.821406	-0.390117	55.763000
16.869911	-0.389804	55.809000
16.884406	-0.396464	55.968000
16.898396	-0.390202	56.014000
16.945726	-0.368243	56.060000
16.959806	-0.365064	56.215000
16.974162	-0.364248	56.262000
16.987635	-0.374168	56.308000
17.002061	-0.383207	56.355000
17.016859	-0.389583	56.401000
17.031074	-0.389920	56.447000
17.044743	-0.389321	56.493000
17.058696	-0.394856	56.540000
17.073461	-0.403928	56.586000
17.087401	-0.413534	56.632000
17.101322	-0.422373	56.679000
17.115221	-0.427165	56.725000
17.129564	-0.423172	56.772000
17.144078	-0.410365	56.818000
17.158352	-0.395760	56.865000
17.270590	-0.381685	56.911000
17.284860	-0.402494	57.280000
17.299758	-0.407075	57.326000
17.313907	-0.407170	57.372000
17.327741	-0.403468	57.418000
17.341535	-0.394575	57.464000
17.355632	-0.381876	57.511000
17.369605	-0.370100	57.557000
17.383712	-0.356185	57.604000
17.398132	-0.344452	57.650000
17.412536	-0.333756	57.696000
17.426998	-0.322611	57.743000
17.441341	-0.306011	57.789000
17.454953	-0.286778	57.835000
17.468852	-0.278233	57.881000
17.482943	-0.274678	57.928000
17.497346	-0.271722	57.974000
17.544788	-0.267682	58.021000
17.559273	-0.218362	58.176000
17.573566	-0.205969	58.223000
17.685549	-0.000530	58.268000
17.699277	0.010240	58.635000
17.713933	0.005216	58.682000
17.727923	-0.009340	58.728000
17.741749	-0.033027	58.775000
17.755681	-0.063469	58.821000
17.769913	-0.098656	58.868000
17.785005	-0.134876	58.913000
17.798987	-0.175438	58.960000
17.813284	-0.218498	59.006000
17.827241	-0.247326	59.052000
17.877767	-0.260061	59.098000
17.892353	-0.267734	59.268000
17.906596	-0.258328	59.314000
17.954517	-0.272017	59.360000
17.968845	-0.264957	59.515000
17.982873	-0.252848	59.561000
17.996360	-0.231004	59.608000
18.010618	-0.212476	59.654000
18.024896	-0.194556	59.701000
18.038891	-0.178422	59.747000
18.053225	-0.174546	59.794000
18.067545	-0.182175	59.840000
18.081813	-0.189900	59.886000
18.095597	-0.196468	59.932000
18.109387	-0.191068	59.978000
18.123340	-0.186306	60.024000
18.137768	-0.162269	60.070000
18.151625	-0.127919	60.117000
18.165755	-0.107328	60.163000
18.214455	-0.101728	60.209000
18.228986	-0.130618	60.368000
18.243156	-0.139556	60.414000
18.289752	-0.142322	60.460000
18.304132	-0.147227	60.615000
18.318323	-0.163552	60.661000
18.332440	-0.191886	60.708000
18.346585	-0.218268	60.754000
18.360732	-0.229114	60.800000
18.375411	-0.220284	60.847000
18.389514	-0.203235	60.893000
18.403564	-0.186651	60.939000
18.417428	-0.169079	60.985000
18.431257	-0.162479	61.032000
18.445515	-0.173987	61.077000
18.459680	-0.175522	61.124000
18.473744	-0.165790	61.170000
18.488349	-0.167491	61.217000
18.502517	-0.182491	61.263000
18.550804	-0.188429	61.309000
18.565058	-0.114729	61.468000
18.579246	-0.105122	61.514000
18.626125	-0.118164	61.560000
18.640529	-0.125733	61.716000
18.654469	-0.127475	61.762000
18.669315	-0.121822	61.809000
18.683430	-0.108705	61.855000
18.697513	-0.089376	61.901000
18.711987	-0.058248	61.947000
18.725646	-0.020589	61.994000
18.739302	0.006401	62.040000
18.753501	0.014801	62.086000
18.768034	0.019404	62.133000
18.782652	0.030173	62.179000
18.796338	0.054418	62.225000
18.810385	0.083977	62.272000
18.824623	0.110693	62.318000
18.839277	0.117782	62.364000
18.952260	0.107433	62.410000
18.966723	0.131406	62.780000
18.980693	0.151181	62.827000
18.994579	0.154131	62.873000
19.008672	0.139020	62.919000
19.022518	0.116274	62.966000
19.036705	0.094294	63.012000
19.050927	0.077716	63.058000
19.065399	0.071643	63.104000
19.079871	0.070342	63.151000
19.093803	0.078732	63.197000
19.107775	0.098626	63.243000
19.122022	0.131878	63.289000
19.136160	0.171778	63.336000
19.149533	0.208824	63.380000
19.163895	0.238188	63.427000
19.178058	0.256790	63.473000
19.225847	0.259450	63.520000
19.239685	0.216789	63.675000
19.253596	0.202105	63.721000
19.366182	0.203609	63.768000
19.379870	0.231776	64.135000
19.394096	0.257769	64.181000
19.408072	0.275553	64.227000
19.422816	0.289794	64.274000
19.437144	0.295018	64.320000
19.450934	0.292475	64.366000
19.464781	0.286597	64.412000
19.479305	0.283824	64.458000
19.493333	0.286797	64.505000
19.506983	0.292665	64.551000
19.559253	0.302925	64.598000
19.573639	0.365880	64.768000
19.588372	0.417424	64.814000
19.634586	0.539711	64.860000
19.648823	0.549369	65.014000
19.662882	0.559626	65.061000
19.676910	0.570898	65.107000
19.691125	0.585705	65.153000
19.705646	0.597040	65.199000
19.719868	0.600543	65.246000
19.734146	0.594534	65.292000
19.747558	0.580325	65.338000
19.761616	0.558272	65.385000
19.776238	0.530400	65.431000
19.789803	0.498241	65.478000
19.804488	0.470538	65.524000
19.818484	0.458688	65.571000
19.833293	0.451075	65.617000
19.847721	0.436719	65.664000
19.895869	0.418492	65.710000
19.909951	0.320443	65.868000
19.923611	0.289720	65.914000
19.970754	0.233026	65.960000
19.984757	0.241266	66.115000
19.999343	0.261090	66.161000
20.014437	0.281144	66.208000
20.028027	0.286671	66.255000
20.042441	0.299928	66.301000
20.055881	0.313551	66.347000
20.070357	0.314998	66.393000
20.084058	0.302556	66.440000
20.098524	0.290666	66.486000
20.112366	0.266260	66.532000
20.127257	0.241688	66.579000
20.141273	0.225535	66.625000
20.155351	0.217608	66.672000
20.169564	0.220984	66.718000
20.183784	0.210882	66.764000
20.231421	0.185658	66.811000
20.245843	0.067244	66.968000
20.259650	0.039948	67.014000
20.307626	-0.035743	67.060000
20.321358	-0.053517	67.214000
20.335743	-0.062408	67.261000
20.349712	-0.070257	67.307000
20.363556	-0.082787	67.354000
20.377407	-0.087169	67.400000
20.391871	-0.077605	67.446000
20.405536	-0.073768	67.492000
20.420634	-0.068093	67.538000
20.434472	-0.061241	67.584000
20.448719	-0.056395	67.631000
20.462632	-0.050616	67.678000
20.477278	-0.043837	67.724000
20.490532	-0.031561	67.770000
20.504952	-0.016805	67.816000
20.518750	-0.002586	67.863000
20.632615	0.015578	67.908000
20.646399	0.359024	68.280000
20.660846	0.357805	68.326000
20.674534	0.357932	68.373000
20.689040	0.366014	68.418000
20.703143	0.371365	68.465000
20.717602	0.362380	68.511000
20.731735	0.345928	68.558000
20.745514	0.331227	68.605000
20.760058	0.325405	68.651000
20.774634	0.319371	68.698000
20.787757	0.310678	68.743000
20.802131	0.301525	68.790000
20.815954	0.297457	68.836000
20.830929	0.299906	68.883000
20.845084	0.313391	68.929000
20.858791	0.330858	68.974000
20.906872	0.328419	69.021000
20.920768	0.289879	69.178000
20.934440	0.277770	69.224000
21.046786	0.377838	69.270000
21.061254	0.397561	69.637000
21.075902	0.417676	69.684000
21.089802	0.434233	69.730000
21.103955	0.429860	69.776000
21.118246	0.400519	69.822000
21.132387	0.368915	69.870000
21.146700	0.354147	69.916000
21.159959	0.369788	69.961000
21.173818	0.399545	70.008000
21.188446	0.418808	70.054000
21.240200	0.431463	70.100000
21.254581	0.485112	70.268000
21.268133	0.507278	70.314000
21.315373	0.545542	70.361000
21.329258	0.538875	70.515000
21.343413	0.524813	70.561000
21.358204	0.510971	70.607000
21.372234	0.497500	70.654000
21.386477	0.484927	70.700000
21.400336	0.492180	70.747000
21.414868	0.495840	70.793000
21.428661	0.480742	70.840000
21.442787	0.474902	70.886000
21.456725	0.477649	70.933000
21.471287	0.478446	70.979000
21.485592	0.485060	71.025000
21.499954	0.509533	71.071000
21.513873	0.545510	71.118000
21.528212	0.571736	71.164000
21.575208	0.557538	71.210000
21.589453	0.531136	71.368000
21.603863	0.525514	71.413000
21.651714	0.498516	71.460000
21.665823	0.486878	71.615000
21.679935	0.470194	71.662000
21.693748	0.450194	71.707000
21.708039	0.426672	71.754000
21.722304	0.407276	71.800000
21.736466	0.385901	71.847000
21.750264	0.360634	71.893000
21.764649	0.332184	71.939000
21.778919	0.304647	71.985000
21.793253	0.282784	72.032000
21.807185	0.268708	72.078000
21.821595	0.251368	72.124000
21.835558	0.232218	72.171000
21.849396	0.211104	72.217000
21.863322	0.190303	72.264000
21.911897	0.170256	72.310000
21.925946	0.107465	72.467000
21.940585	0.094987	72.514000
21.987416	0.098563	72.560000
22.001849	0.114532	72.715000
22.015689	0.121589	72.761000
22.029371	0.115078	72.807000
22.043833	0.091987	72.854000
22.058378	0.061255	72.900000
22.072406	0.031421	72.947000
22.086740	0.001903	72.993000
22.100508	-0.028928	73.039000
22.114852	-0.043164	73.085000
22.129515	-0.046800	73.132000
22.143082	-0.045226	73.178000
22.157222	-0.045581	73.224000
22.171275	-0.038487	73.271000
22.185434	-0.030366	73.317000
22.200209	-0.027174	73.363000
22.313194	-0.021890	73.409000
22.327357	-0.030627	73.779000
22.340897	-0.042546	73.826000
22.355684	-0.056155	73.873000
22.369890	-0.071825	73.919000
22.384009	-0.088463	73.965000
22.398031	-0.107602	74.012000
22.412117	-0.122811	74.058000
22.426371	-0.137410	74.105000
22.440273	-0.148080	74.151000
22.454451	-0.158863	74.197000
22.468773	-0.173924	74.244000
22.483360	-0.193607	74.290000
22.497511	-0.212244	74.336000
22.510872	-0.224079	74.382000
22.525550	-0.225361	74.428000
22.539063	-0.233401	74.475000
22.586923	-0.242586	74.520000
22.601247	-0.266184	74.677000
22.615152	-0.257703	74.723000
22.727599	-0.104721	74.769000
22.741706	-0.098677	75.136000
22.756101	-0.090691	75.183000
22.770880	-0.085592	75.229000
22.784463	-0.078751	75.276000
22.797895	-0.068927	75.322000
22.812081	-0.058508	75.368000
22.826764	-0.049650	75.415000
22.840809	-0.047033	75.461000
22.854985	-0.051499	75.507000
22.869236	-0.044309	75.553000
22.920089	-0.033490	75.600000
22.934175	-0.068758	75.768000
22.948725	-0.076207	75.814000
22.996192	-0.071320	75.860000
23.010414	-0.054454	76.015000
23.024832	-0.040958	76.061000
23.038253	-0.034256	76.107000
23.052373	-0.027129	76.154000
23.066428	-0.015695	76.200000
23.080299	-0.003511	76.246000
23.094957	0.003768	76.292000
23.109408	0.004428	76.338000
23.123818	-0.003519	76.385000
23.137785	-0.017003	76.431000
23.151377	-0.029977	76.478000
23.165722	-0.049070	76.523000
23.179681	-0.069335	76.570000
23.194014	-0.088284	76.616000
23.207881	-0.104806	76.662000
23.256534	-0.119869	76.709000
23.270827	-0.172526	76.868000
23.284923	-0.190255	76.914000
23.332188	-0.242986	76.960000
23.346262	-0.248221	77.115000
23.360490	-0.247231	77.160000
23.374562	-0.247431	77.207000
23.388336	-0.240420	77.254000
23.402411	-0.225719	77.300000
23.417042	-0.215175	77.346000
23.431293	-0.206861	77.393000
23.445056	-0.198474	77.438000
23.459226	-0.194503	77.484000
23.473698	-0.195248	77.531000
23.487486	-0.199580	77.577000
23.501154	-0.207430	77.624000
23.515571	-0.221461	77.670000
23.529825	-0.237709	77.716000
23.544038	-0.250383	77.763000
23.593018	-0.262306	77.808000
23.607303	-0.246075	77.968000
23.621518	-0.230185	78.014000
23.667880	-0.197708	78.061000
23.682038	-0.188333	78.214000
23.696130	-0.176688	78.261000
23.710688	-0.150853	78.307000
23.724981	-0.112058	78.354000
23.739332	-0.069704	78.400000
23.753792	-0.035483	78.447000
23.767640	-0.023370	78.492000
23.780859	-0.034464	78.538000
23.794981	-0.050122	78.584000
23.809219	-0.064447	78.630000
23.823687	-0.082726	78.677000
23.838214	-0.093266	78.724000
23.852696	-0.098133	78.770000
23.866560	-0.105270	78.816000
23.880575	-0.111587	78.862000
23.993848	-0.120287	78.908000
24.007867	-0.016574	79.280000
24.021709	0.001535	79.324000
24.035009	0.014276	79.370000
24.049204	0.019836	79.416000
24.063962	0.017065	79.463000
24.077773	0.005005	79.509000
24.091568	-0.010547	79.555000
24.106109	-0.025234	79.601000
24.120816	-0.040694	79.648000
24.134903	-0.047830	79.694000
24.148585	-0.047946	79.741000
24.162151	-0.045350	79.786000
24.176400	-0.042620	79.833000
24.190793	-0.037247	79.879000
24.205030	-0.027671	79.926000
24.219104	-0.024545	79.971000
24.267218	-0.029024	80.018000
24.281340	-0.063745	80.174000
24.296018	-0.073098	80.220000
24.407491	-0.167953	80.267000
24.420993	-0.166966	80.634000
24.435261	-0.168058	80.681000
24.449500	-0.173522	80.727000
24.463976	-0.174355	80.773000
24.478071	-0.172335	80.820000
24.492232	-0.171664	80.866000
24.506212	-0.166042	80.913000
24.520966	-0.152240	80.959000
24.535033	-0.120972	81.005000
24.548955	-0.102672	81.052000
24.601055	-0.101011	81.097000
24.614948	-0.110229	81.268000
24.628934	-0.123304	81.314000
24.676923	-0.165033	81.360000
24.690173	-0.168037	81.514000
24.704833	-0.162553	81.561000
24.718802	-0.149643	81.607000
24.733200	-0.130965	81.654000
24.747081	-0.111375	81.701000
24.762088	-0.089619	81.746000
24.776018	-0.068922	81.793000
24.789916	-0.043417	81.839000
24.804282	-0.010441	81.886000
24.818533	0.025307	81.932000
24.832790	0.060323	81.979000
24.846051	0.088285	82.025000
24.860150	0.105964	82.071000
24.874401	0.117722	82.117000
24.888829	0.123991	82.163000
24.937290	0.126888	82.210000
24.951791	0.138115	82.368000
24.965471	0.141138	82.414000
25.012196	0.121452	82.460000
25.026447	0.136199	82.615000
25.040729	0.160671	82.661000
25.055569	0.184954	82.708000
25.069813	0.203914	82.754000
25.083702	0.217808	82.801000
25.098103	0.225651	82.846000
25.112014	0.229413	82.893000
25.126023	0.231891	82.939000
25.139592	0.236012	82.986000
25.153822	0.247038	83.032000
25.168236	0.262583	83.079000
25.182650	0.277791	83.125000
25.196542	0.292400	83.170000
25.210612	0.303501	83.217000
25.225318	0.310134	83.264000
25.273388	0.313413	83.310000
25.287683	0.291234	83.468000
25.301010	0.279199	83.514000
25.349074	0.221065	83.559000
25.362716	0.203219	83.715000
25.377598	0.187499	83.761000
25.391189	0.176086	83.808000
25.405618	0.168034	83.853000
25.419268	0.168107	83.900000
25.433394	0.172963	83.946000
25.447370	0.183177	83.992000
25.462105	0.197502	84.039000
25.476189	0.216863	84.085000
25.490223	0.237179	84.131000
25.504012	0.263549	84.177000
25.518304	0.293402	84.223000
25.532831	0.326990	84.269000
25.546596	0.357732	84.316000
25.560428	0.386182	84.362000
25.674251	0.413731	84.409000
25.687885	0.365563	84.780000
25.702224	0.337867	84.825000
25.716135	0.313128	84.870000
25.729889	0.295039	84.916000
25.744061	0.278978	84.962000
25.758095	0.263476	85.008000
25.772169	0.251093	85.054000
25.785857	0.245060	85.100000
25.799578	0.252155	85.146000
25.814019	0.265736	85.192000
25.828381	0.283096	85.239000
25.842425	0.302692	85.284000
25.856887	0.316786	85.332000
25.871099	0.328219	85.378000
25.885625	0.344941	85.424000
25.899370	0.381066	85.470000
25.946553	0.408080	85.516000
25.960577	0.396998	85.672000
25.974955	0.375212	85.719000
26.087108	0.127609	85.765000
26.101417	0.092177	86.132000
26.115840	0.057364	86.178000
26.130212	0.025423	86.225000
26.144077	-0.005859	86.270000
26.158007	-0.031435	86.317000
26.172494	-0.057626	86.363000
26.186154	-0.079215	86.410000
26.200078	-0.078857	86.456000
26.214515	-0.068357	86.502000
26.228735	-0.063754	86.548000
26.281699	-0.065950	86.595000
26.296292	-0.077310	86.768000
26.309976	-0.071133	86.814000
26.357285	-0.110219	86.860000
26.371342	-0.137145	87.014000
26.385311	-0.165756	87.061000
26.399807	-0.185097	87.108000
26.414208	-0.190434	87.154000
26.428663	-0.194756	87.201000
26.442539	-0.190048	87.246000
26.456870	-0.178768	87.293000
26.470589	-0.169646	87.339000
26.484389	-0.169741	87.385000
26.498465	-0.178599	87.432000
26.512954	-0.190212	87.478000
26.527718	-0.200472	87.525000
26.541431	-0.207483	87.572000
26.555881	-0.208934	87.618000
26.570478	-0.210423	87.665000
26.617558	-0.212434	87.711000
26.632290	-0.237331	87.867000
26.646254	-0.254587	87.913000
26.693719	-0.321572	87.960000
26.707843	-0.349620	88.115000
26.721900	-0.372898	88.161000
26.736130	-0.373025	88.208000
26.750194	-0.342722	88.254000
26.764724	-0.312092	88.300000
26.778273	-0.284481	88.347000
26.791927	-0.250747	88.393000
26.806137	-0.214324	88.440000
26.821208	-0.190276	88.485000
26.835237	-0.182960	88.532000
26.849126	-0.176035	88.578000
26.863199	-0.162057	88.624000
26.878396	-0.159924	88.671000
26.891729	-0.172334	88.716000
26.905331	-0.188184	88.763000
26.954059	-0.198948	88.809000
26.967939	-0.245434	88.968000
26.982302	-0.275149	89.014000
27.029776	-0.356502	89.061000
27.044154	-0.371009	89.214000
27.057686	-0.385661	89.261000
27.071939	-0.399262	89.307000
27.085963	-0.411122	89.354000
27.100510	-0.419479	89.400000
27.114964	-0.420245	89.447000
27.128710	-0.418965	89.493000
27.142623	-0.417268	89.539000
27.156989	-0.396650	89.585000
27.171501	-0.387599	89.632000
27.185137	-0.411929	89.678000
27.198862	-0.437401	89.723000
27.212571	-0.445244	89.770000
27.227269	-0.432284	89.816000
27.241044	-0.409549	89.863000
27.355406	-0.388503	89.909000
27.369029	-0.313622	90.279000
27.383221	-0.299498	90.326000
27.397564	-0.283761	90.373000
27.412001	-0.268019	90.419000
27.426304	-0.266194	90.465000
27.440289	-0.267495	90.512000
27.454179	-0.270105	90.558000
27.468359	-0.274007	90.604000
27.481976	-0.281933	90.650000
27.496117	-0.294851	90.697000
27.510397	-0.306021	90.742000
27.525078	-0.303841	90.789000
27.539070	-0.293177	90.836000
27.553359	-0.282281	90.882000
27.567309	-0.271901	90.928000
27.581773	-0.253853	90.975000
27.628695	-0.232530	91.021000
27.643576	-0.190539	91.177000
27.657478	-0.196531	91.223000
27.769351	-0.299710	91.270000
27.783652	-0.306545	91.638000
27.798187	-0.314052	91.684000
27.813091	-0.324747	91.730000
27.826934	-0.339230	91.776000
27.841137	-0.361315	91.823000
27.854948	-0.387077	91.869000
27.868834	-0.404872	91.916000
27.883279	-0.405408	91.962000
27.897288	-0.405481	92.008000
27.911111	-0.418138	92.054000
27.962515	-0.434338	92.100000
27.976186	-0.505428	92.267000
27.990869	-0.520038	92.314000
28.037864	-0.533606	92.360000
28.052790	-0.523464	92.515000
28.066468	-0.498503	92.561000
28.080682	-0.464812	92.608000
28.094716	-0.434191	92.654000
28.108785	-0.412599	92.700000
28.122377	-0.404916	92.746000
28.136941	-0.406027	92.792000
28.150975	-0.412046	92.839000
28.164926	-0.418966	92.884000
28.179334	-0.428119	92.931000
28.193274	-0.432901	92.978000
28.207554	-0.435010	93.024000
28.221851	-0.440200	93.070000
28.235883	-0.446019	93.117000
28.249603	-0.456078	93.163000
28.298449	-0.463754	93.210000
28.312248	-0.478945	93.368000
28.326392	-0.478903	93.414000
28.374189	-0.491556	93.460000
28.388234	-0.490137	93.615000
28.402085	-0.476223	93.660000
28.415944	-0.451107	93.706000
28.430139	-0.437569	93.753000
28.444145	-0.435945	93.799000
28.458733	-0.431507	93.845000
28.472827	-0.424912	93.892000
28.487016	-0.414342	93.939000
28.501336	-0.400281	93.985000
28.516235	-0.383847	94.031000
28.529755	-0.370258	94.078000
28.543626	-0.360991	94.124000
28.557525	-0.357771	94.170000
28.572038	-0.359500	94.216000
28.586450	-0.364751	94.263000
28.634468	-0.377336	94.309000
28.648705	-0.402700	94.468000
28.662996	-0.407212	94.515000
28.710301	-0.363748	94.561000
28.724160	-0.358515	94.716000
28.738192	-0.355988	94.762000
28.752795	-0.353291	94.808000
28.766996	-0.345742	94.855000
28.781160	-0.339093	94.902000
28.795328	-0.339019	94.948000
28.809733	-0.350472	94.994000
28.824143	-0.369501	95.040000
28.837852	-0.390872	95.087000
28.851333	-0.410839	95.133000
28.866208	-0.418241	95.179000
28.879837	-0.419500	95.226000
28.894349	-0.421619	95.272000
28.908711	-0.426212	95.319000
28.922866	-0.424113	95.365000
29.035365	-0.424366	95.412000
29.049972	-0.383794	95.780000
29.063998	-0.366807	95.827000
29.078418	-0.350773	95.873000
29.092645	-0.337655	95.919000
29.106893	-0.334051	95.966000
29.120367	-0.339817	96.012000
29.134805	-0.357644	96.059000
29.148667	-0.377986	96.106000
29.163399	-0.392391	96.152000
29.177552	-0.388178	96.198000
29.191347	-0.381800	96.244000
29.205235	-0.382827	96.290000
29.220131	-0.391828	96.337000
29.234136	-0.396346	96.382000
29.247554	-0.383994	96.429000
29.261363	-0.348899	96.475000
29.309511	-0.306889	96.522000
29.323854	-0.235241	96.678000
29.338266	-0.226791	96.724000
29.450773	-0.261142	96.771000
29.465193	-0.280853	97.138000
29.478904	-0.302846	97.183000
29.493121	-0.325360	97.230000
29.506834	-0.343530	97.277000
29.521094	-0.362019	97.323000
29.535526	-0.383678	97.369000
29.549152	-0.397929	97.415000
29.563451	-0.397113	97.462000
29.577510	-0.389930	97.508000
29.591876	-0.386794	97.555000
29.642727	-0.390296	97.601000
29.657024	-0.430322	97.768000
29.671148	-0.441596	97.815000
29.718453	-0.444668	97.861000
29.732635	-0.421347	98.015000
29.746586	-0.401663	98.062000
29.760641	-0.399849	98.108000
29.774938	-0.404779	98.154000
29.788703	-0.399145	98.201000
29.803292	-0.390686	98.247000
29.817647	-0.379600	98.293000
29.831698	-0.367332	98.339000
29.845949	-0.350054	98.386000
29.860409	-0.326418	98.432000
29.874441	-0.307101	98.478000
29.888267	-0.294520	98.524000
29.901790	-0.290481	98.571000
29.916293	-0.294120	98.617000
29.930914	-0.302467	98.663000
29.979147	-0.316401	98.708000
29.993423	-0.328620	98.867000
30.007380	-0.321805	98.914000
30.051529	-0.328808	98.960000
30.065254	-0.338129	99.115000
30.079797	-0.365693	99.162000
30.094163	-0.394167	99.208000
30.108715	-0.410094	99.254000
30.122557	-0.414522	99.301000
30.136633	-0.414845	99.346000
30.151205	-0.408418	99.394000
30.165446	-0.400478	99.440000
30.179365	-0.394490	99.486000
30.192790	-0.387694	99.532000
30.207359	-0.375029	99.578000
30.221332	-0.359363	99.625000
30.235890	-0.349599	99.671000
30.249718	-0.346466	99.718000
30.264157	-0.347398	99.764000
30.312471	-0.349057	99.811000
30.326935	-0.353052	99.968000
30.340817	-0.356898	100.014000
30.387680	-0.391281	100.060000
30.401787	-0.391839	100.215000
30.416004	-0.384023	100.260000
30.430301	-0.371348	100.308000
30.444782	-0.350524	100.354000
30.458850	-0.325933	100.401000
30.472896	-0.304091	100.447000
30.486657	-0.284967	100.494000
30.500817	-0.267193	100.540000
30.515120	-0.245003	100.586000
30.529267	-0.226253	100.633000
30.543357	-0.213892	100.679000
30.557256	-0.208565	100.725000
30.572241	-0.208312	100.771000
30.586160	-0.204057	100.818000
30.600729	-0.180859	100.864000
30.713812	-0.147373	100.911000
30.727162	-0.118677	101.280000
30.742132	-0.135013	101.327000
30.756025	-0.156968	101.373000
30.769696	-0.183476	101.420000
30.783707	-0.213954	101.466000
30.798895	-0.238202	101.513000
30.812812	-0.257006	101.559000
30.827009	-0.271959	101.606000
30.841077	-0.284765	101.652000
30.855505	-0.302360	101.699000
30.869746	-0.322324	101.745000
30.883699	-0.344659	101.791000
30.897270	-0.366428	101.837000
30.911487	-0.388815	101.883000
30.925930	-0.410185	101.930000
30.939687	-0.423451	101.975000
30.988162	-0.433947	102.022000
31.002002	-0.440743	102.178000
31.016078	-0.444508	102.224000
31.128223	-0.478650	102.270000
31.142340	-0.481644	102.638000
31.156543	-0.486120	102.685000
31.170454	-0.495664	102.730000
31.184609	-0.509948	102.777000
31.198275	-0.530959	102.823000
31.213254	-0.550305	102.870000
31.227634	-0.571454	102.916000
31.241360	-0.594662	102.961000
31.255442	-0.615052	103.008000
31.269226	-0.630376	103.054000
31.320577	-0.631721	103.100000
31.334949	-0.575682	103.267000
31.349165	-0.564505	103.313000
31.395798	-0.539501	103.359000
31.410035	-0.537010	103.514000
31.424138	-0.532607	103.561000
31.438201	-0.526932	103.607000
31.452821	-0.506081	103.653000
31.467035	-0.483411	103.700000
31.480923	-0.468569	103.745000
31.494866	-0.465420	103.791000
31.509012	-0.463985	103.837000
31.522479	-0.460420	103.884000
31.536870	-0.455499	103.930000
31.551159	-0.455488	103.976000
31.565280	-0.457776	104.022000
31.579892	-0.460964	104.068000
31.593927	-0.464843	104.115000
31.608146	-0.469398	104.160000
31.657197	-0.470052	104.207000
31.671313	-0.467393	104.368000
31.685149	-0.469409	104.415000
31.732633	-0.472649	104.461000
31.746941	-0.467045	104.616000
31.760837	-0.458984	104.662000
31.774854	-0.457189	104.709000
31.789452	-0.455330	104.755000
31.803893	-0.443618	104.802000
31.817468	-0.430858	104.847000
31.831408	-0.423885	104.894000
31.845393	-0.421188	104.940000
31.859788	-0.421828	104.986000
31.874047	-0.422721	105.032000
31.887868	-0.419753	105.079000
31.902232	-0.404610	105.125000
31.916919	-0.380637	105.172000
31.930653	-0.350640	105.218000
31.944337	-0.318124	105.264000
31.992860	-0.296091	105.310000
32.006890	-0.277048	105.468000
32.021006	-0.262369	105.515000
32.068177	-0.173469	105.561000
32.082897	-0.161994	105.715000
32.097359	-0.148269	105.762000
32.111287	-0.133562	105.809000
32.125083	-0.118090	105.855000
32.139115	-0.102420	105.902000
32.153264	-0.085581	105.947000
32.167580	-0.066832	105.994000
32.181416	-0.048923	106.040000
32.195553	-0.032831	106.086000
32.210429	-0.018894	106.133000
32.224357	-0.007534	106.179000
32.238710	0.002614	106.226000
32.252336	0.005163	106.272000
32.266900	0.002070	106.319000
32.280930	-0.002115	106.365000
32.393904	-0.005564	106.411000
32.407600	-0.146312	106.780000
32.421518	-0.159438	106.827000
32.435890	-0.170096	106.873000
32.450250	-0.179545	106.919000
32.464442	-0.185578	106.965000
32.478552	-0.191242	107.012000
32.492851	-0.195690	107.058000
32.507296	-0.194973	107.105000
32.521453	-0.191474	107.151000
32.534884	-0.187513	107.197000
32.549067	-0.178252	107.244000
32.563355	-0.165989	107.290000
32.577796	-0.152398	107.335000
32.591672	-0.137125	107.382000
32.605591	-0.125427	107.428000
32.620404	-0.116829	107.474000
32.667654	-0.111018	107.521000
32.682049	-0.116232	107.677000
32.695987	-0.148185	107.723000
32.808111	-0.283138	107.769000
32.822345	-0.299895	108.136000
32.836359	-0.310728	108.183000
32.850839	-0.322946	108.229000
32.864934	-0.333621	108.275000
32.879191	-0.341171	108.322000
32.893394	-0.338580	108.368000
32.907066	-0.319170	108.414000
32.921158	-0.293616	108.461000
32.935322	-0.257628	108.507000
32.949714	-0.221365	108.554000
33.001546	-0.214113	108.600000
33.015092	-0.254721	108.768000
33.029303	-0.278451	108.813000
33.076264	-0.328723	108.860000
33.091128	-0.337165	109.014000
33.105323	-0.351332	109.061000
33.119418	-0.365169	109.107000
33.133340	-0.378835	109.154000
33.147490	-0.392801	109.200000
33.161400	-0.410241	109.246000
33.175165	-0.430290	109.293000
33.189376	-0.457135	109.339000
33.204228	-0.485564	109.385000
33.218492	-0.513185	109.431000
33.232330	-0.538190	109.478000
33.246510	-0.563119	109.524000
33.260721	-0.587779	109.571000
33.275192	-0.607778	109.617000
33.289142	-0.622008	109.663000
33.337321	-0.636250	109.710000
33.351228	-0.617908	109.868000
33.365204	-0.596531	109.915000
33.412365	-0.575912	109.961000
33.426914	-0.587578	110.115000
33.441689	-0.602964	110.161000
33.455170	-0.619676	110.206000
33.469061	-0.633004	110.253000
33.482930	-0.643460	110.300000
33.497394	-0.652655	110.346000
33.511754	-0.660499	110.392000
33.525834	-0.663021	110.438000
33.539864	-0.662135	110.484000
33.554478	-0.658847	110.531000
33.568931	-0.653109	110.578000
33.582911	-0.645973	110.624000
33.596365	-0.636672	110.671000
33.610863	-0.629525	110.717000
33.624797	-0.621871	110.764000
33.673668	-0.613169	110.810000
33.687882	-0.555130	110.968000
33.702020	-0.534951	111.015000
33.749538	-0.492048	111.060000
33.763580	-0.469124	111.216000
33.776991	-0.429850	111.262000
33.791482	-0.387454	111.308000
33.805750	-0.359753	111.354000
33.819615	-0.357309	111.401000
33.834160	-0.357172	111.447000
33.848801	-0.348406	111.493000
33.863073	-0.331272	111.539000
33.877176	-0.301909	111.586000
33.890476	-0.260824	111.632000
33.904840	-0.221439	111.678000
33.919300	-0.199692	111.724000
33.933419	-0.185820	111.771000
33.947418	-0.166325	111.817000
33.961794	-0.126868	111.864000
34.074172	-0.084048	111.910000
34.089132	-0.040525	112.281000
34.103338	-0.045665	112.327000
34.117353	-0.026706	112.374000
34.131345	0.003339	112.420000
34.146250	0.031295	112.466000
34.160192	0.042370	112.512000
34.173607	0.037030	112.559000
34.187780	0.029210	112.605000
34.202017	0.034097	112.651000
34.216320	0.046783	112.698000
34.230611	0.056221	112.744000
34.244806	0.051470	112.790000
34.259017	0.043524	112.837000
34.273627	0.041822	112.883000
34.287680	0.038921	112.930000
34.301272	0.030321	112.976000
34.348825	0.013879	113.021000
34.362793	-0.044119	113.178000
34.377576	-0.056186	113.225000
34.489647	-0.090395	113.271000
34.503931	-0.069354	113.638000
34.518402	-0.039264	113.684000
34.532064	-0.030482	113.731000
34.546612	-0.034874	113.777000
34.560477	-0.036540	113.823000
34.574469	-0.030355	113.869000
34.588276	-0.020370	113.916000
34.602540	-0.009516	113.962000
34.617323	0.002017	114.008000
34.631138	0.009485	114.055000
34.681972	0.015596	114.100000
34.696309	0.086756	114.268000
34.710443	0.108587	114.315000
34.758372	0.205847	114.361000
34.772252	0.250840	114.516000
34.786378	0.296226	114.562000
34.800769	0.348388	114.609000
34.814627	0.400799	114.655000
34.828276	0.448336	114.702000
34.843140	0.487179	114.748000
34.857297	0.514105	114.794000
34.871327	0.531858	114.841000
34.885410	0.547818	114.887000
34.899782	0.566714	114.933000
34.914293	0.590736	114.980000
34.928323	0.619661	115.026000
34.941876	0.645526	115.072000
34.956018	0.662786	115.119000
34.970197	0.666169	115.165000
35.018634	0.661281	115.212000
35.032487	0.674420	115.368000
35.046947	0.680041	115.414000
35.093982	0.688757	115.460000
35.107693	0.686002	115.614000
35.121577	0.679045	115.661000
35.135753	0.672477	115.707000
35.150163	0.672266	115.752000
35.164366	0.675461	115.799000
35.178407	0.685531	115.846000
35.192633	0.704825	115.892000
35.207374	0.723588	115.939000
35.220955	0.732153	115.984000
35.234985	0.733458	116.031000
35.248892	0.740239	116.078000
35.263248	0.751620	116.124000
35.277612	0.767407	116.170000
35.291389	0.782172	116.216000
35.306010	0.785492	116.262000
35.354604	0.782393	116.309000
35.369007	0.776803	116.468000
35.383014	0.783992	116.515000
35.430021	0.741612	116.561000
35.444351	0.717459	116.716000
35.458681	0.681029	116.762000
35.473129	0.642855	116.809000
35.487021	0.613964	116.855000
35.501485	0.603981	116.902000
35.515688	0.602022	116.949000
35.529465	0.606414	116.995000
35.543491	0.623874	117.040000
35.557978	0.649669	117.087000
35.572031	0.683246	117.133000
35.586391	0.720077	117.180000
35.600183	0.743084	117.226000
35.614555	0.751472	117.272000
35.628623	0.767427	117.318000
35.642984	0.791462	117.365000
35.755546	0.802751	117.412000
35.769442	0.802582	117.780000
35.783898	0.793847	117.826000
35.797990	0.785421	117.873000
35.811459	0.786954	117.919000
35.825662	0.788394	117.965000
35.839738	0.784419	118.012000
35.854602	0.773303	118.058000
35.868486	0.755969	118.104000
35.882542	0.746911	118.150000
35.897395	0.741939	118.197000
35.911713	0.722724	118.243000
35.925558	0.692456	118.290000
35.939469	0.660084	118.336000
35.952961	0.641640	118.382000
35.967967	0.642754	118.429000
35.981901	0.647964	118.475000
36.030057	0.632546	118.522000
36.043837	0.585568	118.677000
36.057956	0.584509	118.724000
36.170007	0.573458	118.770000
36.183907	0.561725	119.137000
36.197883	0.551415	119.183000
36.211805	0.539481	119.229000
36.225874	0.523195	119.275000
36.240323	0.504374	119.322000
36.254760	0.481599	119.368000
36.269301	0.456149	119.415000
36.283469	0.430647	119.461000
36.297564	0.407117	119.508000
36.311633	0.389031	119.554000
36.362470	0.376680	119.600000
36.377119	0.323680	119.768000
36.391149	0.300548	119.814000
36.438729	0.227130	119.861000
36.452747	0.223788	120.016000
36.466500	0.231368	120.062000
36.480450	0.240015	120.108000
36.494822	0.247267	120.153000
36.509144	0.255918	120.200000
36.522970	0.263171	120.247000
36.537699	0.274175	120.293000
36.551810	0.285139	120.339000
36.565963	0.291410	120.386000
36.579682	0.295282	120.432000
36.593393	0.294284	120.478000
36.607623	0.290065	120.524000
36.622432	0.285610	120.571000
36.636366	0.281133	120.617000
36.650231	0.278304	120.664000
36.699179	0.274561	120.710000
36.713151	0.297973	120.868000
36.727749	0.308430	120.914000
36.774065	0.318194	120.961000
36.788795	0.308166	121.116000
36.802871	0.295460	121.162000
36.817016	0.281613	121.208000
36.831492	0.268141	121.255000
36.845737	0.252218	121.301000
36.860128	0.237701	121.347000
36.874027	0.227635	121.394000
36.887416	0.222305	121.440000
36.901822	0.218281	121.487000
36.916102	0.219110	121.533000
36.930597	0.220889	121.580000
36.944584	0.220678	121.626000
36.959390	0.219131	121.673000
36.973597	0.216137	121.719000
36.987254	0.215284	121.765000
37.035299	0.206866	121.812000
37.049283	0.152376	121.968000
37.062867	0.140066	122.015000
37.110270	0.151075	122.061000
37.124788	0.156205	122.215000
37.139045	0.164457	122.261000
37.153432	0.180920	122.308000
37.167416	0.194118	122.354000
37.181350	0.209779	122.401000
37.195906	0.232481	122.447000
37.209433	0.253436	122.493000
37.223609	0.262636	122.540000
37.237689	0.271188	122.586000
37.252034	0.283381	122.632000
37.266525	0.295028	122.679000
37.280497	0.303985	122.725000
37.294812	0.314727	122.771000
37.308288	0.334632	122.817000
37.322925	0.358511	122.864000
37.436675	0.386762	122.910000
37.450279	0.436655	123.281000
37.464082	0.445734	123.327000
37.477897	0.455983	123.373000
37.492691	0.462190	123.420000
37.506537	0.459211	123.466000
37.521197	0.450046	123.513000
37.535350	0.438344	123.559000
37.550406	0.427218	123.606000
37.564316	0.423474	123.652000
37.577874	0.423136	123.699000
37.592077	0.420935	123.745000
37.605980	0.413583	123.791000
37.620210	0.399639	123.837000
37.634374	0.380089	123.884000
37.648082	0.356923	123.929000
37.662811	0.331511	123.975000
37.710060	0.302871	124.022000
37.724436	0.212207	124.177000
37.738381	0.187927	124.223000
37.850579	0.109196	124.270000
37.864436	0.112542	124.637000
37.878562	0.111776	124.683000
37.893418	0.113063	124.730000
37.907898	0.116892	124.776000
37.921847	0.118214	124.822000
37.935397	0.113558	124.868000
37.949092	0.106048	124.913000
37.963703	0.102746	124.960000
37.977660	0.104551	125.006000
37.991532	0.112110	125.053000
38.043887	0.122103	125.099000
38.057806	0.171209	125.268000
38.072416	0.176916	125.315000
38.118662	0.159855	125.361000
38.133173	0.159507	125.516000
38.147702	0.160523	125.563000
38.161851	0.153361	125.608000
38.175920	0.140338	125.655000
38.190499	0.124494	125.702000
38.204506	0.109856	125.748000
38.218551	0.104863	125.795000
38.232431	0.104508	125.841000
38.246515	0.101762	125.888000
38.260726	0.090665	125.934000
38.275101	0.077129	125.980000
38.289274	0.064431	126.027000
38.303599	0.050757	126.072000
38.317967	0.040700	126.119000
38.332343	0.028098	126.166000
38.380008	0.021008	126.212000
38.393865	0.006725	126.368000
38.407476	0.003434	126.415000
38.455167	-0.008373	126.461000
38.469704	-0.010104	126.616000
38.484153	-0.010051	126.662000
38.498529	-0.008626	126.708000
38.512132	-0.004316	126.755000
38.525778	-0.000153	126.801000
38.539846	0.006243	126.847000
38.554560	0.012797	126.894000
38.568517	0.023922	126.940000
38.582785	0.036182	126.986000
38.597077	0.053129	127.032000
38.611191	0.067628	127.079000
38.625313	0.079822	127.125000
38.639482	0.087740	127.172000
38.653450	0.087047	127.218000
38.668214	0.084481	127.264000
38.715390	0.077641	127.310000
38.730085	0.029983	127.468000
38.744315	0.021039	127.515000
38.791729	0.009390	127.561000
38.805629	0.009724	127.716000
38.819513	0.006116	127.762000
38.833600	0.003036	127.808000
38.847888	0.000487	127.854000
38.861737	0.002122	127.901000
38.876343	0.003170	127.947000
38.890569	-0.000426	127.994000
38.904887	-0.009811	128.040000
38.918914	-0.023243	128.085000
38.932986	-0.039025	128.132000
38.946974	-0.049334	128.179000
38.961188	-0.052528	128.225000
38.974822	-0.048252	128.272000
38.988921	-0.035671	128.317000
39.003170	-0.018778	128.364000
39.116728	-0.008835	128.410000
39.130935	0.122891	128.780000
39.145234	0.130546	128.827000
39.159106	0.131438	128.873000
39.173405	0.127181	128.920000
39.187846	0.116608	128.966000
39.202114	0.102568	129.012000
39.216010	0.090623	129.058000
39.229732	0.088180	129.104000
39.244085	0.089639	129.149000
39.258146	0.072337	129.197000
39.272126	0.039537	129.243000
39.286091	0.014369	129.288000
39.300051	-0.001265	129.334000
39.314980	-0.011299	129.381000
39.328803	-0.017645	129.427000
39.342791	-0.021756	129.474000
39.390009	-0.018535	129.520000
39.404477	0.039642	129.676000
39.418592	0.068961	129.722000
39.530866	0.149032	129.768000
39.545469	0.142728	130.136000
39.559437	0.133010	130.182000
39.573025	0.121673	130.228000
39.587244	0.109898	130.274000
39.601485	0.099023	130.320000
39.615327	0.088559	130.367000
39.629553	0.077799	130.413000
39.643437	0.064873	130.459000
39.658185	0.051396	130.506000
39.672261	0.036129	130.552000
39.724309	0.020096	130.599000
39.738285	-0.021566	130.768000
39.751958	-0.026674	130.815000
39.799795	-0.036366	130.861000
39.813813	-0.039099	131.016000
39.828093	-0.044183	131.062000
39.842377	-0.049439	131.108000
39.856180	-0.052728	131.154000
39.870202	-0.057806	131.200000
39.884152	-0.060614	131.247000
39.898355	-0.060958	131.293000
39.912719	-0.059791	131.340000
39.926895	-0.056439	131.386000
39.941155	-0.052865	131.432000
39.955934	-0.048853	131.479000
39.969957	-0.044049	131.526000
39.984044	-0.038793	131.572000
39.997763	-0.037753	131.618000
40.011831	-0.036973	131.664000
40.059734	-0.037690	131.711000
40.074371	-0.023623	131.869000
40.088224	-0.026140	131.915000
40.136576	-0.028260	131.961000
40.150237	0.008560	132.116000
40.164260	0.032817	132.162000
40.177940	0.049562	132.209000
40.192389	0.069580	132.255000
40.206803	0.095680	132.301000
40.220821	0.126014	132.347000
40.234533	0.147722	132.394000
40.249473	0.159708	132.440000
40.263518	0.167289	132.485000
40.277425	0.166512	132.532000
40.291751	0.164416	132.578000
40.305850	0.160158	132.625000
40.319700	0.155524	132.671000
40.333749	0.150419	132.718000
40.347729	0.145802	132.764000
40.396381	0.141147	132.810000
40.410622	0.130075	132.969000
40.425002	0.126004	133.015000
40.471779	0.122081	133.061000
40.486296	0.121054	133.216000
40.500307	0.116692	133.262000
40.514230	0.109666	133.309000
40.528671	0.100039	133.354000
40.542981	0.093906	133.401000
40.557061	0.092637	133.447000
40.571352	0.092405	133.493000
40.585509	0.091473	133.540000
40.599382	0.097564	133.586000
40.613700	0.104391	133.633000
40.627718	0.098038	133.679000
40.641763	0.075504	133.726000
40.655778	0.047370	133.772000
40.670089	0.026640	133.818000
40.684791	0.017076	133.864000
40.797718	0.014327	133.910000
40.811718	-0.056713	134.281000
40.825963	-0.068241	134.327000
40.840546	-0.072426	134.374000
40.854422	-0.066874	134.420000
40.868414	-0.048136	134.466000
40.882363	-0.017688	134.513000
40.896385	0.017695	134.559000
40.910285	0.048672	134.606000
40.924757	0.073859	134.652000
40.939044	0.091380	134.698000
40.953389	0.106628	134.745000
40.967711	0.122483	134.791000
40.981872	0.137489	134.837000
40.996136	0.149096	134.884000
41.009939	0.160777	134.930000
41.023881	0.168727	134.977000
41.071864	0.171926	135.023000
41.086221	0.176979	135.179000
41.100235	0.181004	135.225000
41.212456	0.213752	135.272000
41.226436	0.215580	135.639000
41.240750	0.216736	135.685000
41.254949	0.219417	135.731000
41.268549	0.220288	135.778000
41.282245	0.223483	135.824000
41.296767	0.227097	135.869000
41.311338	0.229224	135.916000
41.325403	0.228099	135.962000
41.339379	0.225741	136.008000
41.353766	0.224041	136.055000
41.404623	0.220288	136.101000
41.419202	0.193531	136.269000
41.433286	0.184269	136.315000
41.481166	0.134236	136.361000
41.495526	0.119483	136.516000
41.509264	0.107760	136.563000
41.522506	0.101403	136.609000
41.537059	0.098207	136.655000
41.551369	0.098614	136.701000
41.565780	0.107760	136.748000
41.579906	0.115844	136.795000
41.594320	0.115119	136.841000
41.608488	0.105380	136.886000
41.623037	0.094954	136.933000
41.636187	0.087290	136.979000
41.650697	0.080661	137.026000
41.665054	0.080475	137.072000
41.679053	0.083429	137.118000
41.693267	0.094188	137.165000
41.741239	0.105545	137.211000
41.755261	0.075922	137.369000
41.769948	0.050043	137.415000
41.816191	-0.035525	137.461000
41.830963	-0.054770	137.616000
41.844831	-0.067989	137.662000
41.858934	-0.074000	137.709000
41.873579	-0.075662	137.755000
41.887786	-0.071825	137.802000
41.902238	-0.065919	137.848000
41.916126	-0.058730	137.895000
41.930275	-0.048810	137.941000
41.944540	-0.037823	137.987000
41.958543	-0.023675	138.034000
41.972811	-0.009897	138.080000
41.986568	0.006548	138.126000
42.000825	0.031840	138.172000
42.015016	0.055141	138.218000
42.029207	0.075588	138.265000
42.077429	0.095922	138.311000
42.091674	0.132872	138.469000
42.105485	0.135598	138.515000
42.152435	0.144219	138.561000
42.167122	0.152891	138.716000
42.180983	0.161177	138.763000
42.195762	0.171494	138.809000
42.209642	0.178445	138.855000
42.223925	0.181582	138.902000
42.238593	0.183081	138.948000
42.252373	0.182348	138.995000
42.265988	0.181799	139.040000
42.279838	0.180604	139.086000
42.293883	0.177713	139.132000
42.308405	0.175896	139.178000
42.322373	0.171778	139.225000
42.336672	0.170066	139.271000
42.351113	0.166136	139.317000
42.365578	0.167791	139.364000
42.478586	0.167257	139.410000
42.493081	0.142282	139.781000
42.506807	0.140004	139.827000
42.520269	0.140204	139.874000
42.535002	0.143812	139.920000
42.548828	0.149589	139.966000
42.562789	0.156153	140.013000
42.577510	0.164194	140.059000
42.592082	0.171546	140.105000
42.606392	0.178487	140.152000
42.620004	0.183081	140.198000
42.633649	0.186510	140.244000
42.647703	0.189831	140.290000
42.661798	0.191954	140.335000
42.675974	0.194476	140.381000
42.690027	0.199448	140.428000
42.703976	0.208169	140.473000
42.751955	0.218081	140.520000
42.765820	0.258155	140.675000
42.779989	0.262362	140.722000
42.892205	0.156078	140.768000
42.906289	0.141378	141.135000
42.920039	0.124880	141.182000
42.934522	0.109634	141.228000
42.948929	0.095552	141.274000
42.963335	0.081963	141.321000
42.977177	0.072117	141.367000
42.991049	0.063277	141.413000
43.005617	0.058886	141.459000
43.019520	0.056221	141.506000
43.033570	0.056463	141.552000
43.085936	0.061611	141.599000
43.100058	0.096674	141.768000
43.114342	0.108127	141.815000
43.161096	0.129673	141.861000
43.175333	0.136730	142.016000
43.189478	0.143403	142.063000
43.203516	0.151550	142.109000
43.217642	0.159046	142.156000
43.231941	0.165664	142.202000
43.246201	0.170853	142.248000
43.260462	0.177471	142.294000
43.274792	0.181226	142.341000
43.288622	0.179914	142.387000
43.302752	0.177660	142.433000
43.317112	0.173789	142.480000
43.331127	0.168892	142.526000
43.345072	0.165568	142.573000
43.359386	0.161103	142.619000
43.373758	0.155375	142.665000
43.422279	0.147323	142.712000
43.436017	0.127725	142.869000
43.449763	0.123790	142.915000
43.497032	0.106417	142.961000
43.511334	0.102420	143.117000
43.525829	0.098426	143.163000
43.540136	0.094578	143.209000
43.553958	0.090581	143.255000
43.567996	0.088559	143.301000
43.582260	0.088169	143.348000
43.596586	0.086516	143.394000
43.610163	0.086378	143.440000
43.624070	0.085644	143.486000
43.638227	0.086889	143.533000
43.652856	0.087983	143.579000
43.666913	0.087184	143.625000
43.681154	0.088211	143.672000
43.695100	0.085130	143.718000
43.709280	0.083840	143.763000
43.757785	0.081006	143.810000
43.771900	0.067243	143.969000
43.785934	0.063298	144.015000
43.833667	0.073091	144.061000
43.848085	0.085487	144.216000
43.862011	0.101804	144.262000
43.876087	0.121326	144.309000
43.890605	0.139972	144.356000
43.903794	0.159191	144.402000
43.918492	0.180541	144.449000
43.932557	0.194946	144.495000
43.947336	0.203229	144.541000
43.961224	0.208527	144.588000
43.975089	0.210041	144.633000
43.989169	0.209388	144.681000
44.003863	0.201149	144.727000
44.017886	0.190839	144.773000
44.031889	0.186791	144.819000
44.045776	0.190786	144.866000
44.158343	0.199437	144.912000
44.172926	0.249215	145.281000
44.186626	0.245419	145.328000
44.200952	0.242193	145.374000
44.214935	0.237882	145.420000
44.229572	0.231547	145.466000
44.243929	0.226976	145.512000
44.257913	0.225995	145.559000
44.272000	0.224400	145.605000
44.285850	0.225251	145.651000
44.300318	0.227320	145.698000
44.313898	0.229875	145.744000
44.327967	0.234048	145.790000
44.342124	0.233363	145.836000
44.356876	0.237021	145.882000
44.371325	0.238451	145.929000
44.385662	0.239112	145.975000
44.432377	0.238894	146.022000
44.446334	0.239091	146.178000
44.460572	0.237021	146.224000
44.573134	0.218678	146.270000
44.587149	0.216451	146.638000
44.601651	0.212533	146.684000
44.615520	0.211177	146.731000
44.629892	0.207667	146.777000
44.644060	0.201232	146.823000
44.658582	0.194265	146.869000
44.672420	0.185677	146.916000
44.686262	0.178078	146.962000
44.700407	0.168976	147.008000
44.714702	0.155805	147.055000
44.766492	0.147091	147.101000
44.780657	0.110925	147.269000
44.793949	0.100018	147.315000
44.841856	0.072516	147.362000
44.856104	0.073366	147.516000
44.869727	0.073886	147.563000
44.884268	0.079906	147.609000
44.898460	0.085687	147.655000
44.912689	0.096759	147.701000
44.926712	0.109238	147.748000
44.940369	0.122490	147.795000
44.954583	0.128551	147.841000
44.968875	0.128176	147.887000
44.983077	0.122827	147.933000
44.997595	0.111671	147.980000
45.012033	0.097912	148.026000
45.026032	0.088622	148.072000
45.040162	0.080570	148.118000
45.054887	0.075546	148.165000
45.102959	0.068555	148.210000
45.117469	0.051125	148.369000
45.131491	0.056294	148.415000
45.178998	0.063625	148.462000
45.192936	0.065921	148.616000
45.207323	0.072075	148.663000
45.221487	0.080641	148.709000
45.235725	0.093172	148.756000
45.249659	0.099192	148.803000
45.263681	0.107676	148.848000
45.277684	0.123436	148.895000
45.292202	0.153133	148.941000
45.306367	0.181603	148.988000
45.320681	0.201233	149.034000
45.334903	0.201065	149.080000
45.349352	0.193634	149.127000
45.363017	0.192508	149.172000
45.376359	0.194498	149.218000
45.390639	0.195812	149.265000
45.439041	0.196082	149.311000
45.453059	0.196283	149.469000
45.467592	0.199856	149.515000
45.515395	0.221739	149.561000
45.529137	0.230871	149.716000
45.543240	0.239912	149.763000
45.557078	0.247509	149.809000
45.571008	0.256381	149.855000
45.585545	0.263212	149.901000
45.599817	0.268601	149.948000
45.613793	0.275226	149.994000
45.627973	0.280419	150.040000
45.642629	0.286553	150.086000
45.656436	0.293787	150.132000
45.669998	0.301724	150.178000
45.683928	0.311476	150.224000
45.698157	0.322797	150.269000
45.712506	0.346496	150.316000
45.726744	0.383429	150.363000
45.840067	0.405165	150.409000
45.854116	0.390018	150.781000
45.868504	0.385531	150.828000
45.883386	0.378194	150.874000
45.897040	0.367948	150.921000
45.911539	0.361684	150.967000
45.925603	0.359361	151.014000
45.939710	0.365910	151.060000
45.953509	0.380465	151.106000
45.967432	0.398359	151.152000
45.981804	0.411719	151.199000
45.996206	0.418364	151.244000
46.010321	0.422676	151.291000
46.024701	0.426410	151.337000
46.038700	0.430403	151.384000
46.052634	0.435628	151.430000
46.066767	0.441542	151.476000
46.113994	0.448704	151.522000
46.128320	0.468342	151.677000
46.142557	0.473778	151.724000
46.254862	0.578363	151.770000
46.269180	0.599684	152.138000
46.283694	0.620364	152.183000
46.297917	0.641050	152.230000
46.311297	0.660485	152.276000
46.325366	0.677551	152.323000
46.339392	0.693886	152.370000
46.354144	0.713866	152.416000
46.367897	0.739121	152.462000
46.382400	0.763179	152.508000
46.396441	0.786018	152.554000
46.447636	0.806817	152.601000
46.461639	0.859696	152.769000
46.475762	0.869886	152.815000
46.523695	0.889645	152.862000
46.537752	0.894174	153.016000
46.551820	0.900003	153.063000
46.566104	0.906695	153.110000
46.580130	0.913949	153.156000
46.593895	0.924374	153.203000
46.608244	0.938538	153.248000
46.622331	0.955412	153.295000
46.636630	0.977641	153.341000
46.651183	0.993055	153.387000
46.665635	1.005460	153.434000
46.679366	1.019116	153.480000
46.693603	1.033782	153.527000
46.708228	1.058574	153.573000
46.722013	1.085447	153.620000
46.735977	1.113846	153.667000
46.783645	1.127216	153.713000
46.797821	1.117850	153.869000
46.812274	1.117503	153.916000
46.859397	1.119239	153.962000
46.874072	1.082935	154.117000
46.888025	1.047201	154.163000
46.902086	1.020038	154.209000
46.915916	1.007904	154.255000
46.930227	0.997008	154.301000
46.944287	0.983211	154.348000
46.958517	0.973320	154.394000
46.972355	0.972630	154.440000
46.986719	0.975901	154.486000
47.000592	0.977328	154.533000
47.014687	0.975953	154.579000
47.028798	0.970950	154.625000
47.043158	0.965918	154.672000
47.057841	0.959164	154.718000
47.071694	0.954069	154.764000
47.120342	0.948669	154.811000
47.134349	0.943655	154.969000
47.148456	0.945869	155.015000
47.195490	0.965950	155.062000
47.209693	0.974704	155.217000
47.223531	0.980534	155.263000
47.237995	0.990812	155.309000
47.252451	0.999735	155.355000
47.266255	1.012432	155.402000
47.280561	1.024408	155.448000
47.294937	1.038690	155.494000
47.308437	1.049829	155.540000
47.322455	1.060591	155.587000
47.336566	1.069755	155.633000
47.350892	1.076295	155.679000
47.365275	1.081642	155.725000
47.379136	1.087496	155.772000
47.393635	1.094401	155.818000
47.407726	1.102032	155.864000
47.520877	1.109443	155.910000
47.535813	1.111113	156.281000
47.549697	1.092553	156.328000
47.563724	1.074380	156.374000
47.578030	1.054443	156.421000
47.591561	1.038389	156.467000
47.605887	1.027503	156.512000
47.620151	1.021013	156.560000
47.634511	1.014898	156.606000
47.648972	1.004508	156.652000
47.662698	0.991274	156.699000
47.676621	0.977736	156.745000
47.690958	0.967114	156.791000
47.705618	0.956313	156.838000
47.719168	0.945785	156.884000
47.733278	0.932333	156.930000
47.747024	0.922057	156.977000
47.795249	0.913636	157.023000
47.809610	0.930495	157.179000
47.823985	0.941686	157.225000
47.936229	0.893868	157.272000
47.949948	0.869069	157.638000
47.963667	0.846059	157.685000
47.977666	0.825032	157.731000
47.992276	0.805597	157.777000
48.006502	0.783486	157.824000
48.020678	0.765112	157.870000
48.034343	0.744440	157.916000
48.048769	0.727015	157.963000
48.063321	0.711960	158.009000
48.077632	0.699560	158.055000
48.128054	0.697688	158.102000
48.142841	0.794824	158.268000
48.157021	0.820123	158.315000
48.204017	0.841214	158.362000
48.217897	0.842171	158.517000
48.232645	0.846059	158.562000
48.246164	0.851210	158.609000
48.260390	0.855549	158.655000
48.274559	0.859368	158.702000
48.289265	0.861341	158.748000
48.303233	0.854533	158.794000
48.316952	0.842916	158.840000
48.330694	0.825179	158.885000
48.344962	0.802013	158.932000
48.358773	0.790052	158.978000
48.372696	0.795783	159.025000
48.386964	0.813566	159.071000
48.401674	0.837044	159.118000
48.416457	0.860321	159.164000
48.464736	0.886425	159.210000
48.478547	0.972377	159.369000
48.493030	1.003709	159.415000
48.539987	1.076776	159.461000
48.553852	1.064878	159.617000
48.567802	1.047189	159.663000
48.583138	1.029421	159.709000
48.597056	1.013378	159.755000
48.611002	1.004841	159.800000
48.624682	0.989971	159.847000
48.639162	0.962215	159.893000
48.653207	0.929690	159.940000
48.666776	0.899163	159.986000
48.680975	0.880697	160.033000
48.695501	0.867852	160.078000
48.710065	0.860848	160.125000
48.724133	0.852385	160.171000
48.737944	0.843356	160.218000
48.752155	0.829671	160.264000
48.800760	0.816296	160.310000
48.815297	0.779039	160.469000
48.829354	0.772838	160.516000
48.876819	0.795150	160.561000
48.890718	0.808373	160.717000
48.904817	0.816170	160.763000
48.919070	0.815056	160.809000
48.933396	0.810917	160.856000
48.946949	0.803970	160.902000
48.961056	0.796434	160.948000
48.974906	0.788879	160.994000
48.989354	0.787217	161.040000
49.003761	0.802561	161.087000
49.017960	0.829158	161.133000
49.031940	0.844604	161.179000
49.046496	0.854934	161.225000
49.060626	0.855708	161.271000
49.074718	0.855571	161.318000
49.088336	0.854891	161.364000
49.202497	0.853180	161.410000
49.215882	0.803453	161.782000
49.229969	0.806535	161.827000
49.244311	0.809634	161.874000
49.258179	0.797716	161.920000
49.272367	0.784578	161.966000
49.286643	0.784053	162.013000
49.300776	0.805474	162.059000
49.314849	0.851295	162.106000
49.329182	0.907595	162.152000
49.343558	0.957436	162.199000
49.357887	0.994557	162.245000
49.371161	1.020625	162.291000
49.385291	1.040790	162.337000
49.399847	1.057144	162.383000
49.414468	1.071660	162.430000
49.428306	1.086857	162.477000
49.476912	1.101789	162.523000
49.490888	1.147468	162.679000
49.504373	1.143706	162.726000
49.616490	1.175773	162.772000
49.630904	1.162888	163.139000
49.645030	1.143947	163.185000
49.658952	1.121841	163.231000
49.672905	1.094336	163.277000
49.687223	1.079308	163.323000
49.701726	1.081149	163.370000
49.715910	1.054736	163.416000
49.729425	1.027804	163.462000
49.742932	1.010525	163.506000
49.757300	0.996201	163.553000
49.809294	0.981982	163.599000
49.823689	1.005210	163.769000
49.837577	1.017340	163.816000
49.884861	1.077376	163.862000
49.899079	1.092626	164.017000
49.913148	1.104007	164.063000
49.927527	1.130104	164.109000
49.941753	1.167398	164.155000
49.955995	1.176037	164.202000
49.969952	1.169154	164.248000
49.984274	1.175794	164.294000
49.997869	1.195595	164.339000
50.011404	1.211698	164.385000
50.025587	1.228283	164.432000
50.039902	1.235912	164.476000
50.054481	1.243712	164.524000
50.068461	1.259254	164.570000
50.082645	1.275245	164.616000
50.096237	1.280698	164.663000
50.145465	1.283340	164.709000
50.159721	1.250216	164.869000
50.173982	1.235092	164.916000
50.221377	1.213241	164.961000
50.235811	1.205402	165.117000
50.249645	1.194062	165.163000
50.263529	1.183528	165.210000
50.277620	1.174839	165.256000
50.291984	1.161732	165.302000
50.305930	1.143220	165.349000
50.319733	1.120654	165.395000
50.334140	1.092246	165.441000
50.348623	1.055735	165.488000
50.362718	1.024755	165.534000
50.376476	1.002713	165.580000
50.390901	0.991965	165.626000
50.405465	0.995143	165.673000
50.419441	1.008887	165.719000
50.433341	1.016640	165.766000
50.481520	0.998339	165.812000
50.495308	0.953291	165.969000
50.509799	0.961188	166.016000
50.557052	0.968456	166.062000
50.571524	0.968568	166.217000
50.585258	0.985379	166.262000
50.599780	1.000762	166.309000
50.613268	1.005775	166.356000
50.627924	1.016817	166.402000
50.642235	1.019667	166.448000
50.656015	1.022048	166.495000
50.670283	1.036626	166.541000
50.684855	1.056125	166.588000
50.699154	1.071898	166.634000
50.713092	1.096674	166.681000
50.726718	1.119962	166.727000
50.740825	1.123304	166.773000
50.755043	1.117609	166.819000
50.769384	1.106824	166.866000
50.882470	1.090816	166.912000
50.896269	0.868168	167.281000
50.910118	0.843116	167.328000
50.924767	0.824792	167.374000
50.939131	0.816286	167.420000
50.952931	0.824075	167.467000
50.967168	0.854449	167.513000
50.981156	0.901336	167.559000
50.995489	0.937417	167.605000
51.009369	0.956814	167.652000
51.023569	0.978744	167.699000
51.037921	1.007214	167.745000
51.052270	1.044899	167.791000
51.066611	1.073349	167.838000
51.080453	1.085342	167.884000
51.094564	1.083061	167.929000
51.108494	1.076596	167.975000
51.156066	1.079805	168.022000
51.170315	1.078279	168.177000
51.184276	1.094173	168.224000
51.296300	1.049849	168.270000
51.310749	1.035294	168.637000
51.324683	1.028132	168.683000
51.339420	1.028825	168.729000
51.353243	1.035692	168.776000
51.366977	1.048936	168.822000
51.380876	1.072215	168.868000
51.395221	1.103484	168.915000
51.409704	1.139858	168.961000
51.423719	1.177812	169.008000
51.437453	1.212697	169.053000
51.489781	1.248692	169.100000
51.503469	1.359965	169.270000
51.518429	1.381344	169.316000
51.565890	1.430095	169.362000
51.580258	1.426927	169.518000
51.594484	1.420236	169.564000
51.608483	1.406544	169.611000
51.622482	1.386460	169.657000
51.637146	1.365068	169.703000
51.649820	1.338288	169.749000
51.664234	1.311108	169.795000
51.678652	1.282195	169.841000
51.692967	1.249868	169.888000
51.707231	1.215942	169.934000
51.720731	1.181061	169.980000
51.735195	1.147468	170.026000
51.749655	1.117186	170.073000
51.763808	1.093581	170.119000
51.777358	1.083588	170.165000
51.825913	1.085889	170.211000
51.839532	1.142507	170.370000
51.854123	1.166230	170.416000
51.901311	1.163655	170.462000
51.915814	1.126144	170.617000
51.930063	1.095402	170.663000
51.943708	1.066414	170.709000
51.957558	1.046413	170.756000
51.971634	1.029767	170.801000
51.986559	1.008857	170.848000
52.000259	0.990446	170.894000
52.014561	0.980482	170.940000
52.028250	0.948826	170.986000
52.042894	0.913049	171.032000
52.056640	0.883594	171.079000
52.070117	0.858437	171.124000
52.084604	0.832744	171.171000
52.099030	0.807670	171.217000
52.113159	0.788373	171.263000
52.162264	0.777400	171.309000
52.176233	0.786690	171.470000
52.190424	0.798671	171.516000
52.238288	0.830927	171.563000
52.251804	0.841039	171.718000
52.265887	0.852226	171.764000
52.280609	0.862494	171.810000
52.294381	0.867054	171.857000
52.308888	0.870915	171.904000
52.322876	0.871502	171.950000
52.337758	0.870862	171.996000
52.351615	0.866635	172.043000
52.365918	0.861372	172.089000
52.379679	0.857691	172.136000
52.394301	0.851608	172.182000
52.408131	0.847898	172.229000
52.422100	0.843858	172.275000
52.436456	0.840641	172.321000
52.450663	0.838186	172.368000
52.562868	0.838524	172.413000
52.577425	0.952033	172.782000
52.591478	0.971822	172.829000
52.605458	0.987697	172.875000
52.619730	1.003730	172.921000
52.634186	1.018790	172.967000
52.647367	1.033325	173.013000
52.661263	1.043757	173.059000
52.675769	1.051142	173.106000
52.690252	1.053792	173.152000
52.704728	1.054009	173.199000
52.718977	1.052035	173.245000
52.732849	1.049638	173.291000
52.747029	1.045080	173.337000
52.761370	1.039039	173.384000
52.775089	1.033554	173.430000
52.789123	1.031099	173.476000
52.836864	1.032745	173.523000
52.850787	1.061610	173.679000
52.865689	1.073296	173.725000
52.977702	1.147992	173.770000
52.992158	1.146554	174.138000
53.005908	1.138786	174.184000
53.019515	1.128244	174.230000
53.033845	1.119049	174.277000
53.048006	1.105626	174.323000
53.062147	1.088557	174.370000
53.076442	1.072372	174.416000
53.090391	1.061737	174.461000
53.104909	1.063468	174.508000
53.118870	1.080570	174.554000
53.170215	1.096041	174.601000
53.184767	1.102412	174.770000
53.198494	1.103252	174.816000
53.246634	1.074474	174.863000
53.260188	1.080939	175.018000
53.274986	1.085970	175.064000
53.289085	1.087463	175.111000
53.302597	1.085236	175.156000
53.316684	1.085279	175.203000
53.331506	1.089534	175.249000
53.345325	1.093128	175.296000
53.359420	1.093813	175.343000
53.373561	1.091026	175.389000
53.388021	1.085907	175.435000
53.402470	1.078961	175.481000
53.416089	1.078824	175.528000
53.430085	1.072067	175.574000
53.444230	1.069564	175.620000
53.458644	1.066013	175.667000
53.507084	1.060316	175.713000
53.521410	1.036929	175.870000
53.535590	1.023810	175.916000
53.582497	1.038187	175.963000
53.596063	1.063690	176.118000
53.610062	1.100338	176.164000
53.624899	1.150483	176.211000
53.639182	1.192769	176.256000
53.652870	1.229523	176.303000
53.667131	1.243939	176.349000
53.681864	1.253097	176.396000
53.695928	1.273420	176.442000
53.710035	1.281506	176.488000
53.723934	1.276429	176.535000
53.738280	1.270947	176.581000
53.752198	1.266890	176.628000
53.766532	1.273901	176.674000
53.780515	1.279794	176.721000
53.794899	1.275884	176.767000
53.842629	1.262534	176.813000
53.857346	1.225749	176.969000
53.871326	1.212095	177.015000
53.918207	1.172485	177.062000
53.932671	1.160313	177.217000
53.946770	1.147763	177.263000
53.960854	1.134319	177.309000
53.975360	1.124923	177.356000
53.989774	1.114906	177.402000
54.003605	1.108329	177.448000
54.017608	1.102632	177.495000
54.031599	1.099541	177.541000
54.045864	1.096283	177.588000
54.059844	1.092520	177.634000
54.073812	1.088589	177.681000
54.088004	1.084070	177.727000
54.102806	1.083828	177.773000
54.116644	1.085352	177.819000
54.130893	1.096631	177.866000
54.244270	1.111249	177.912000
54.258146	1.180735	178.282000
54.272445	1.180103	178.328000
54.286271	1.179167	178.374000
54.300209	1.185665	178.421000
54.313816	1.194157	178.467000
54.328534	1.199400	178.514000
54.342856	1.205106	178.560000
54.357009	1.227349	178.606000
54.370989	1.272331	178.653000
54.385918	1.318965	178.699000
54.400378	1.347673	178.745000
54.413659	1.353003	178.791000
54.427628	1.347509	178.838000
54.441539	1.333876	178.884000
54.455941	1.319414	178.931000
54.470190	1.301809	178.977000
54.517985	1.281064	179.024000
54.532153	1.240641	179.180000
54.546083	1.229523	179.226000
54.657832	1.280111	179.272000
54.672269	1.307888	179.639000
54.686572	1.327089	179.685000
54.700191	1.340753	179.731000
54.714236	1.347704	179.778000
54.728389	1.350074	179.823000
54.743210	1.348115	179.870000
54.757298	1.341392	179.916000
54.771528	1.333401	179.962000
54.785519	1.331453	180.009000
54.799557	1.333791	180.055000
54.850936	1.344286	180.101000
54.865504	1.363464	180.270000
54.879446	1.355527	180.316000
54.926334	1.311287	180.361000
54.940329	1.325474	180.517000
54.954563	1.341108	180.563000
54.968781	1.334838	180.610000
54.983122	1.316005	180.656000
54.997456	1.295651	180.703000
55.011248	1.280947	180.749000
55.025931	1.273658	180.795000
55.040076	1.275011	180.841000
55.053906	1.278724	180.887000
55.067905	1.280550	180.934000
55.082185	1.278787	180.980000
55.096196	1.273525	181.027000
55.110672	1.264798	181.074000
55.124486	1.253978	181.120000
55.139096	1.243637	181.166000
55.187326	1.232474	181.213000
55.201379	1.204212	181.370000
55.215658	1.212547	181.416000
55.262324	1.278420	181.462000
55.276676	1.301724	181.616000
55.291021	1.327153	181.663000
55.305259	1.357542	181.709000
55.319535	1.387793	181.756000
55.334318	1.414111	181.802000
55.348060	1.438094	181.849000
55.361394	1.458121	181.895000
55.375643	1.477049	181.941000
55.390023	1.491123	181.987000
55.404364	1.500888	182.034000
55.418475	1.511084	182.080000
55.432850	1.519922	182.127000
55.447218	1.525734	182.173000
55.461556	1.529380	182.220000
55.475413	1.529222	182.266000
55.523246	1.527680	182.313000
55.536769	1.526683	182.470000
55.551106	1.528214	182.516000
55.599097	1.570759	182.563000
55.613581	1.587831	182.718000
55.627757	1.595273	182.764000
55.641890	1.597089	182.811000
55.655721	1.597785	182.857000
55.669843	1.594128	182.903000
55.683554	1.587276	182.950000
55.697983	1.572315	182.996000
55.712209	1.554216	183.043000
55.726362	1.535319	183.089000
55.740803	1.519419	183.135000
55.755375	1.509507	183.181000
55.769086	1.503875	183.227000
55.783258	1.503295	183.273000
55.797450	1.504620	183.320000
55.811257	1.509465	183.367000
55.924204	1.515383	183.412000
55.937350	1.549508	183.781000
55.951741	1.550790	183.827000
55.966124	1.552105	183.873000
55.980539	1.555303	183.920000
55.994926	1.555962	183.966000
56.009129	1.555815	184.013000
56.023366	1.550801	184.059000
56.037803	1.545358	184.105000
56.050908	1.540650	184.151000
56.064788	1.533914	184.197000
56.079279	1.528278	184.243000
56.093904	1.526251	184.290000
56.107953	1.526198	184.336000
56.122414	1.528520	184.383000
56.135733	1.527164	184.429000
56.150612	1.525158	184.475000
56.197396	1.527628	184.520000
56.211999	1.578285	184.678000
56.226144	1.593161	184.724000
56.338300	1.677511	184.770000
56.352710	1.659833	185.137000
56.366694	1.644784	185.184000
56.381304	1.632886	185.230000
56.395557	1.627307	185.276000
56.409337	1.628884	185.323000
56.423436	1.646928	185.369000
56.437535	1.673509	185.415000
56.451615	1.698745	185.462000
56.465718	1.719183	185.507000
56.479779	1.731408	185.552000
56.532069	1.739475	185.599000
56.545910	1.731703	185.770000
56.560186	1.736612	185.816000
56.606944	1.778609	185.862000
56.621566	1.787216	186.017000
56.635542	1.799327	186.063000
56.649933	1.815234	186.109000
56.663786	1.836584	186.156000
56.678984	1.856615	186.202000
56.692150	1.874083	186.248000
56.706399	1.891688	186.294000
56.719791	1.911371	186.340000
56.734205	1.932011	186.386000
56.748811	1.950426	186.433000
56.762545	1.963522	186.479000
56.776817	1.976406	186.525000
56.791308	1.988600	186.571000
56.805373	1.995240	186.618000
56.819695	1.998269	186.664000
56.868112	2.001000	186.711000
56.881808	2.038943	186.870000
56.895431	2.045450	186.916000
56.944086	2.059302	186.962000
56.958043	2.067648	187.118000
56.972834	2.076509	187.164000
56.986484	2.084948	187.210000
57.000483	2.085705	187.257000
57.014225	2.081667	187.303000
57.028981	2.072177	187.350000
57.042865	2.060332	187.395000
57.057014	2.052798	187.442000
57.071486	2.051463	187.489000
57.085815	2.054113	187.535000
57.099818	2.055539	187.581000
57.113925	2.056747	187.628000
57.128155	2.061164	187.674000
57.142465	2.058357	187.721000
57.156845	2.050623	187.767000
57.204179	2.036172	187.814000
57.218639	1.963386	187.970000
57.232216	1.949619	188.016000
57.280034	1.878288	188.063000
57.294106	1.858324	188.218000
57.308067	1.844870	188.264000
57.322258	1.840035	188.311000
57.336100	1.845749	188.356000
57.350407	1.860732	188.403000
57.364302	1.872876	188.448000
57.379001	1.878969	188.495000
57.393203	1.879691	188.542000
57.407429	1.877082	188.588000
57.421667	1.869321	188.635000
57.435516	1.854727	188.681000
57.449535	1.835567	188.728000
57.463622	1.815603	188.774000
57.477614	1.800416	188.820000
57.492174	1.786505	188.866000
57.604548	1.782855	188.913000
57.620015	1.863011	189.282000
57.633815	1.853468	189.328000
57.648144	1.839302	189.375000
57.662197	1.823058	189.421000
57.676454	1.811743	189.468000
57.690311	1.801898	189.514000
57.704088	1.798185	189.561000
57.718225	1.799233	189.607000
57.732539	1.805231	189.653000
57.746873	1.810642	189.699000
57.760588	1.810445	189.745000
57.774533	1.804770	189.791000
57.789124	1.799402	189.837000
57.803650	1.795995	189.884000
57.817495	1.791477	189.931000
57.831391	1.784818	189.977000
57.878909	1.778757	190.023000
57.893074	1.746844	190.179000
57.907223	1.730730	190.225000
58.019812	1.652897	190.271000
58.033854	1.649303	190.638000
58.047826	1.651397	190.684000
58.062390	1.671848	190.731000
58.076067	1.699563	190.778000
58.090969	1.710688	190.824000
58.104676	1.709869	190.871000
58.118629	1.722214	190.916000
58.132363	1.743753	190.963000
58.146897	1.751355	191.009000
58.161626	1.747600	191.055000
58.212291	1.753849	191.101000
58.226213	1.880478	191.270000
58.240431	1.921764	191.316000
58.288122	2.029139	191.363000
58.302360	2.037357	191.518000
58.316912	2.031662	191.564000
58.330577	2.020246	191.610000
58.344454	2.004291	191.657000
58.358507	1.988704	191.703000
58.372821	1.970995	191.749000
58.386970	1.948679	191.795000
58.401019	1.921953	191.842000
58.415426	1.892654	191.888000
58.430001	1.865904	191.934000
58.444100	1.836312	191.980000
58.458430	1.807706	192.027000
58.471999	1.781115	192.073000
58.485714	1.761526	192.120000
58.500509	1.746843	192.166000
58.548204	1.735289	192.213000
58.562672	1.705843	192.370000
58.576947	1.697886	192.416000
58.624623	1.702299	192.462000
58.637985	1.697274	192.617000
58.651873	1.706610	192.664000
58.666648	1.713174	192.710000
58.680897	1.707932	192.756000
58.694846	1.694620	192.803000
58.709011	1.676105	192.849000
58.722899	1.648969	192.895000
58.737501	1.614338	192.942000
58.751750	1.577852	192.988000
58.765534	1.547880	193.034000
58.779226	1.528857	193.080000
58.793348	1.523874	193.127000
58.808123	1.528772	193.173000
58.822299	1.537360	193.220000
58.836702	1.541330	193.266000
58.884870	1.534953	193.313000
58.898830	1.522508	193.469000
58.913345	1.541784	193.516000
58.959691	1.634936	193.563000
58.974132	1.657031	193.717000
58.988154	1.671388	193.763000
59.002419	1.681317	193.810000
59.016683	1.683777	193.856000
59.031347	1.680889	193.902000
59.045300	1.675969	193.949000
59.059488	1.672291	193.995000
59.073233	1.670966	194.042000
59.087290	1.667688	194.088000
59.101071	1.659110	194.133000
59.115327	1.646109	194.180000
59.129396	1.634265	194.226000
59.144171	1.628052	194.273000
59.158193	1.633214	194.320000
59.173022	1.661623	194.366000
59.285685	1.700249	194.413000
59.299688	1.801602	194.782000
59.313879	1.802998	194.829000
59.328397	1.801058	194.875000
59.342254	1.793917	194.922000
59.356115	1.777487	194.967000
59.370672	1.753054	195.014000
59.384659	1.722235	195.060000
59.398620	1.689201	195.107000
59.412834	1.660540	195.153000
59.427445	1.638898	195.200000
59.441743	1.620767	195.246000
59.455627	1.606568	195.292000
59.469381	1.596428	195.339000
59.483046	1.593757	195.384000
59.497694	1.592538	195.431000
59.511732	1.592939	195.477000
59.559969	1.588673	195.523000
59.574022	1.605132	195.679000
59.588117	1.617194	195.725000
59.699796	1.689180	195.771000
59.714022	1.687088	196.138000
59.728114	1.684482	196.185000
59.742274	1.682085	196.231000
59.755978	1.684366	196.277000
59.770215	1.689841	196.323000
59.784529	1.697717	196.369000
59.798632	1.709136	196.416000
59.812877	1.723880	196.462000
59.826546	1.738791	196.508000
59.840834	1.750661	196.554000
59.892643	1.763309	196.601000
59.907434	1.814279	196.770000
59.920888	1.843505	196.816000
59.968587	1.943078	196.863000
59.982812	1.960777	197.017000
59.996378	1.975271	197.063000
60.010703	1.989596	197.110000
60.024783	2.009427	197.156000
60.038975	2.034423	197.202000
60.053389	2.057147	197.249000
60.067234	2.071841	197.295000
60.079570	2.079469	197.342000
60.093247	2.085702	197.388000
60.106720	2.106501	197.434000
60.120696	2.140080	197.480000
60.135168	2.166046	197.526000
60.149067	2.174907	197.572000
60.163274	2.175997	197.619000
60.177092	2.182614	197.665000
60.225794	2.188236	197.712000
60.240058	2.295286	197.870000
60.254668	2.315953	197.916000
60.300873	2.337019	197.962000
60.315514	2.344028	198.117000
60.329763	2.355557	198.163000
60.343635	2.363998	198.210000
60.357538	2.356787	198.255000
60.372464	2.344964	198.302000
60.386363	2.335584	198.348000
60.400043	2.328035	198.393000
60.413539	2.320567	198.440000
60.428365	2.313542	198.486000
60.442279	2.306453	198.532000
60.456159	2.303057	198.577000
60.470393	2.301073	198.624000
60.484730	2.303078	198.671000
60.499383	2.307628	198.717000
60.513125	2.315588	198.763000
60.562368	2.327603	198.809000
60.576582	2.341274	198.970000
60.589994	2.327940	199.017000
60.637589	2.234814	199.062000
60.651930	2.200483	199.218000
60.666233	2.177362	199.264000
60.680593	2.165418	199.311000
60.694777	2.149993	199.357000
60.708749	2.134997	199.403000
60.722806	2.122673	199.449000
60.736871	2.110802	199.496000
60.750528	2.101143	199.542000
60.764831	2.095732	199.588000
60.779495	2.092934	199.635000
60.793448	2.093251	199.680000
60.807651	2.093543	199.725000
60.820935	2.093324	199.771000
60.834773	2.094123	199.816000
60.849072	2.096150	199.862000
60.963686	2.097474	199.908000
60.977601	2.078065	200.282000
60.991182	2.099649	200.329000
61.005273	2.121230	200.375000
61.019472	2.141551	200.421000
61.033936	2.165879	200.468000
61.048054	2.194370	200.514000
61.061942	2.219570	200.560000
61.076575	2.238285	200.607000
61.090982	2.244579	200.653000
61.104513	2.272806	200.698000
61.117974	2.328078	200.745000
61.132526	2.378773	200.791000
61.146964	2.414069	200.838000
61.160974	2.437960	200.884000
61.174862	2.459064	200.930000
61.189722	2.478245	200.977000
61.237586	2.497353	201.023000
61.251593	2.541493	201.179000
61.265166	2.556905	201.225000
61.377410	2.595186	201.271000
61.391893	2.586462	201.639000
61.405785	2.577254	201.686000
61.420134	2.567303	201.732000
61.434820	2.558503	201.779000
61.448931	2.550680	201.825000
61.463023	2.540705	201.871000
61.476933	2.523614	201.917000
61.491536	2.506188	201.964000
61.504855	2.488469	202.010000
61.518939	2.474871	202.057000
61.570718	2.455700	202.103000
61.584437	2.438175	202.269000
61.598970	2.439209	202.316000
61.645539	2.435604	202.362000
61.660487	2.435948	202.517000
61.674590	2.438439	202.564000
61.688955	2.441068	202.610000
61.702512	2.443948	202.656000
61.717533	2.448866	202.702000
61.731152	2.457380	202.748000
61.745413	2.481925	202.795000
61.758882	2.496404	202.841000
61.773085	2.511162	202.887000
61.787453	2.521186	202.933000
61.801337	2.526559	202.979000
61.815390	2.527033	203.026000
61.829911	2.520789	203.072000
61.844418	2.508165	203.118000
61.858390	2.506791	203.165000
61.906965	2.507904	203.211000
61.920849	2.581888	203.370000
61.934914	2.610088	203.416000
61.981621	2.633515	203.463000
61.995955	2.631897	203.617000
62.010169	2.630601	203.663000
62.024894	2.626395	203.710000
62.038502	2.610425	203.756000
62.052367	2.595827	203.802000
62.066643	2.583474	203.848000
62.080849	2.580602	203.895000
62.094814	2.580328	203.941000
62.109086	2.584796	203.987000
62.123200	2.601248	204.033000
62.137661	2.600809	204.080000
62.151894	2.576763	204.126000
62.166109	2.556018	204.173000
62.180573	2.549166	204.219000
62.194203	2.553043	204.265000
62.242582	2.561548	204.312000
62.256612	2.609310	204.470000
62.270577	2.618958	204.516000
62.318652	2.671293	204.563000
62.332740	2.687977	204.716000
62.346082	2.701180	204.763000
62.360492	2.708426	204.809000
62.374626	2.710638	204.856000
62.388602	2.710347	204.902000
62.402913	2.708616	204.948000
62.417104	2.711163	204.995000
62.431530	2.707735	205.041000
62.445652	2.702010	205.087000
62.459559	2.693223	205.133000
62.473474	2.684025	205.180000
62.487919	2.674233	205.225000
62.501538	2.666167	205.271000
62.515222	2.661082	205.317000
62.529167	2.659570	205.362000
62.643140	2.658238	205.408000
62.657704	2.702291	205.782000
62.671757	2.700428	205.829000
62.686236	2.697984	205.875000
62.700001	2.694029	205.922000
62.714754	2.687707	205.968000
62.729210	2.680878	206.015000
62.743294	2.674421	206.061000
62.756744	2.670119	206.108000
62.771204	2.666326	206.154000
62.785430	2.662458	206.200000
62.798972	2.658608	206.246000
62.813225	2.653167	206.292000
62.827931	2.649267	206.339000
62.842241	2.647776	206.385000
62.856490	2.645406	206.431000
62.870413	2.647955	206.477000
62.916913	2.650483	206.523000
62.931323	2.663893	206.679000
62.945453	2.666501	206.725000
63.057901	2.661176	206.772000
63.072376	2.661113	207.138000
63.086352	2.657295	207.185000
63.100682	2.652003	207.230000
63.114774	2.646253	207.278000
63.129092	2.644547	207.324000
63.143191	2.644390	207.370000
63.157029	2.643014	207.417000
63.170786	2.642709	207.463000
63.185142	2.639650	207.509000
63.199472	2.637037	207.556000
63.251351	2.635715	207.602000
63.265143	2.654236	207.770000
63.278804	2.659812	207.817000
63.326914	2.670371	207.863000
63.340813	2.669418	208.017000
63.354824	2.662570	208.064000
63.369434	2.658121	208.110000
63.382968	2.655523	208.156000
63.396895	2.651801	208.202000
63.411413	2.652294	208.249000
63.425650	2.657516	208.295000
63.439434	2.664594	208.341000
63.453568	2.656873	208.388000
63.467840	2.640141	208.434000
63.482404	2.621893	208.480000
63.496276	2.610191	208.526000
63.510076	2.592773	208.572000
63.524010	2.568874	208.618000
63.538105	2.543206	208.665000
63.586757	2.519780	208.711000
63.601252	2.463623	208.870000
63.615385	2.476350	208.916000
63.662965	2.475921	208.962000
63.676857	2.488026	209.117000
63.690837	2.500513	209.164000
63.705070	2.510078	209.210000
63.719508	2.518830	209.257000
63.733515	2.530195	209.303000
63.747498	2.549439	209.349000
63.761901	2.570544	209.396000
63.776404	2.588926	209.442000
63.790253	2.598887	209.489000
63.805151	2.598321	209.535000
63.818970	2.592900	209.581000
63.833369	2.592291	209.628000
63.847441	2.596148	209.674000
63.860714	2.595856	209.721000
63.874856	2.590350	209.766000
63.923296	2.576521	209.812000
63.937656	2.620374	209.970000
63.952566	2.627294	210.016000
63.999159	2.598154	210.062000
64.013238	2.584816	210.217000
64.027303	2.574466	210.263000
64.041683	2.563815	210.309000
64.055766	2.554132	210.356000
64.070565	2.542985	210.403000
64.084260	2.528512	210.448000
64.098298	2.511636	210.495000
64.112313	2.493083	210.541000
64.126504	2.470971	210.587000
64.140334	2.448983	210.634000
64.154376	2.425544	210.680000
64.167872	2.405807	210.726000
64.182789	2.392711	210.773000
64.196935	2.391102	210.818000
64.211245	2.405965	210.865000
64.324272	2.425903	210.911000
64.338591	2.417430	211.283000
64.352947	2.400048	211.329000
64.367373	2.379710	211.376000
64.381130	2.365729	211.422000
64.395463	2.365469	211.467000
64.409605	2.380171	211.514000
64.423577	2.385564	211.561000
64.437304	2.385951	211.607000
64.451668	2.381854	211.653000
64.466324	2.373825	211.700000
64.480692	2.359706	211.746000
64.494791	2.340605	211.793000
64.509036	2.311541	211.839000
64.522867	2.277336	211.885000
64.537642	2.238223	211.932000
64.551226	2.197452	211.978000
64.598695	2.158600	212.024000
64.612671	2.038839	212.180000
64.627062	2.007939	212.227000
64.739755	1.822648	212.273000
64.753954	1.823780	212.640000
64.768430	1.832180	212.687000
64.782460	1.842792	212.733000
64.796459	1.861226	212.779000
64.810297	1.881905	212.826000
64.824273	1.883244	212.873000
64.838956	1.881475	212.919000
64.852856	1.886352	212.965000
64.867139	1.892892	213.010000
64.881423	1.904952	213.057000
64.931381	1.899770	213.103000
64.946463	1.893324	213.270000
64.960547	1.922582	213.317000
65.008085	1.948555	213.363000
65.022276	1.938916	213.518000
65.036237	1.933702	213.565000
65.049245	1.935481	213.610000
65.063828	1.937244	213.656000
65.078527	1.940776	213.703000
65.092580	1.948931	213.749000
65.106602	1.957329	213.796000
65.121239	1.966620	213.842000
65.135415	1.975311	213.888000
65.149606	1.979381	213.935000
65.163644	1.979455	213.981000
65.177428	1.976542	214.027000
65.191227	1.969911	214.073000
65.205757	1.958980	214.120000
65.219587	1.944107	214.166000
65.267624	1.926060	214.212000
65.282300	1.865401	214.370000
65.296698	1.847321	214.417000
65.343567	1.797417	214.463000
65.357636	1.789022	214.617000
65.371720	1.786641	214.664000
65.386203	1.789293	214.710000
65.400056	1.795311	214.757000
65.414301	1.803949	214.802000
65.429084	1.811963	214.849000
65.442907	1.817321	214.895000
65.456606	1.818242	214.941000
65.470767	1.815338	214.987000
65.484981	1.814101	215.033000
65.498919	1.821147	215.079000
65.513379	1.830669	215.126000
65.527617	1.832377	215.172000
65.542000	1.831518	215.219000
65.556038	1.831896	215.265000
65.604498	1.829065	215.312000
65.618358	1.881001	215.470000
65.632581	1.909465	215.517000
65.679688	1.968492	215.563000
65.694240	1.957033	215.718000
65.708485	1.936675	215.764000
65.722323	1.923003	215.810000
65.736223	1.925367	215.857000
65.750652	1.947500	215.902000
65.764897	1.981240	215.949000
65.778589	2.005214	215.996000
65.792435	2.020191	216.042000
65.806841	2.039815	216.089000
65.821348	2.060719	216.135000
65.835885	2.075413	216.182000
65.849946	2.080122	216.228000
65.863799	2.078692	216.275000
65.878313	2.071407	216.321000
65.893034	2.059690	216.368000
66.005943	2.043410	216.414000
66.019688	1.955069	216.783000
66.033795	1.959862	216.829000
66.047802	1.963099	216.876000
66.062170	1.974051	216.922000
66.076047	1.989122	216.969000
66.090077	2.001757	217.015000
66.104583	2.021126	217.061000
66.118890	2.040329	217.108000
66.133358	2.044567	217.154000
66.147480	2.046794	217.201000
66.161195	2.046847	217.248000
66.175655	2.045449	217.293000
66.189224	2.046288	217.339000
66.203146	2.057484	217.385000
66.217292	2.084758	217.432000
66.231491	2.116771	217.479000
66.279243	2.138269	217.525000
66.293550	2.169829	217.680000
66.308195	2.169861	217.726000
66.420304	2.183443	217.773000
66.433750	2.160099	218.140000
66.447788	2.139942	218.186000
66.462494	2.133261	218.232000
66.476754	2.131654	218.279000
66.491076	2.135089	218.325000
66.505068	2.134826	218.372000
66.519029	2.134186	218.418000
66.533673	2.132744	218.464000
66.547281	2.137836	218.511000
66.561726	2.147242	218.557000
66.612874	2.153598	218.603000
66.626966	2.162931	218.771000
66.641388	2.158465	218.817000
66.687803	2.095319	218.863000
66.701987	2.071472	219.018000
66.716347	2.052248	219.064000
66.730324	2.034130	219.111000
66.744392	2.015418	219.157000
66.759075	1.998728	219.204000
66.773336	1.982997	219.250000
66.787519	1.976415	219.297000
66.801557	1.980744	219.342000
66.815963	1.986893	219.389000
66.829671	1.992969	219.435000
66.843885	1.997920	219.482000
66.857900	2.002924	219.528000
66.872560	2.008861	219.575000
66.886828	2.024345	219.621000
66.901519	2.049703	219.667000
66.949102	2.080720	219.714000
66.962840	2.135026	219.870000
66.976325	2.135150	219.916000
67.024016	2.099272	219.963000
67.038384	2.085031	220.117000
67.052829	2.072923	220.164000
67.067143	2.063295	220.210000
67.081265	2.051985	220.256000
67.095219	2.038828	220.303000
67.108642	2.017679	220.349000
67.123017	2.004666	220.395000
67.136794	2.011708	220.440000
67.151300	2.020845	220.487000
67.165100	2.029809	220.533000
67.179268	2.039447	220.580000
67.193836	2.050726	220.626000
67.207635	2.063505	220.672000
67.221458	2.079532	220.718000
67.236187	2.097820	220.765000
67.285077	2.109507	220.811000
67.298907	2.145733	220.970000
67.312753	2.158493	221.017000
67.360498	2.195154	221.063000
67.374758	2.205818	221.218000
67.388688	2.215633	221.265000
67.402964	2.223582	221.311000
67.416840	2.226172	221.357000
67.431139	2.225416	221.404000
67.444793	2.220710	221.450000
67.458969	2.212791	221.496000
67.474128	2.200667	221.542000
67.488020	2.184153	221.589000
67.501766	2.169107	221.635000
67.516341	2.154171	221.681000
67.530632	2.137803	221.728000
67.544662	2.120681	221.774000
67.558662	2.102181	221.820000
67.572469	2.090400	221.867000
67.685485	2.093899	221.913000
67.700022	1.985014	222.283000
67.714198	1.991634	222.330000
67.728120	2.007379	222.376000
67.742627	2.022076	222.422000
67.756733	2.031857	222.468000
67.770879	2.035494	222.514000
67.784986	2.036159	222.561000
67.799161	2.037996	222.607000
67.813530	2.035013	222.654000
67.827644	2.034475	222.700000
67.840975	2.031534	222.746000
67.855128	2.026995	222.792000
67.869711	2.021014	222.838000
67.884263	2.015022	222.885000
67.898132	2.016221	222.931000
67.912277	2.022883	222.977000
67.960222	2.033299	223.024000
67.973975	2.072690	223.179000
67.987760	2.079094	223.225000
68.099677	2.004352	223.272000
68.114275	1.994060	223.637000
68.128359	1.984633	223.683000
68.141582	1.977624	223.729000
68.155812	1.972296	223.775000
68.170687	1.971077	223.822000
68.184464	1.971853	223.868000
68.198517	1.976055	223.914000
68.212470	1.981921	223.961000
68.226754	1.989510	224.007000
68.241229	1.995375	224.053000
68.294007	1.998140	224.100000
68.308014	1.972064	224.271000
68.321498	1.957222	224.317000
68.368967	1.911273	224.363000
68.382797	1.900339	224.519000
68.397203	1.892013	224.565000
68.411794	1.888415	224.611000
68.425701	1.887899	224.657000
68.440046	1.890061	224.703000
68.453746	1.896773	224.750000
68.468260	1.904301	224.796000
68.482105	1.912555	224.842000
68.496251	1.917977	224.888000
68.510350	1.921171	224.933000
68.524610	1.922421	224.980000
68.538487	1.920131	225.026000
68.552647	1.914193	225.073000
68.566554	1.907575	225.119000
68.580953	1.898647	225.166000
68.628867	1.889748	225.212000
68.643389	1.853486	225.371000
68.657826	1.845706	225.416000
68.705394	1.823118	225.463000
68.719094	1.817330	225.617000
68.733224	1.813691	225.663000
68.747231	1.809725	225.710000
68.761560	1.807201	225.756000
68.775037	1.807661	225.802000
68.789313	1.807862	225.848000
68.803320	1.809068	225.893000
68.818003	1.808270	225.941000
68.831995	1.806339	225.987000
68.846201	1.799892	226.033000
68.860147	1.793840	226.079000
68.874792	1.792681	226.126000
68.888645	1.790948	226.172000
68.902367	1.792418	226.218000
68.916536	1.794188	226.264000
68.965441	1.795854	226.311000
68.979678	1.804317	226.470000
68.994000	1.803615	226.517000
69.040985	1.795749	226.563000
69.055161	1.792582	226.717000
69.069206	1.790414	226.764000
69.083105	1.787562	226.810000
69.097297	1.781363	226.856000
69.111972	1.777619	226.902000
69.125994	1.778772	226.948000
69.140124	1.782485	226.995000
69.154262	1.779560	227.041000
69.168568	1.770783	227.087000
69.182245	1.760686	227.134000
69.196167	1.751270	227.180000
69.210105	1.744810	227.225000
69.224704	1.738400	227.272000
69.238818	1.728461	227.319000
69.253140	1.719347	227.365000
69.366594	1.710268	227.411000
69.380801	1.668630	227.783000
69.394808	1.687278	227.829000
69.409599	1.712627	227.876000
69.423705	1.734722	227.922000
69.437997	1.759574	227.968000
69.451604	1.786022	228.015000
69.465634	1.810475	228.061000
69.479395	1.828079	228.108000
69.493417	1.838501	228.154000
69.507563	1.843977	228.200000
69.521954	1.844890	228.246000
69.536376	1.843304	228.293000
69.550321	1.839771	228.339000
69.564505	1.845056	228.386000
69.579726	1.852605	228.432000
69.593610	1.858312	228.479000
69.640878	1.866374	228.525000
69.654662	1.877625	228.679000
69.668923	1.873579	228.726000
69.781017	1.864130	228.772000
69.795162	1.875360	229.140000
69.809891	1.884734	229.187000
69.824021	1.898964	229.233000
69.838405	1.914688	229.280000
69.852419	1.915856	229.326000
69.865489	1.909505	229.372000
69.880064	1.903190	229.418000
69.894325	1.896773	229.465000
69.908170	1.894129	229.511000
69.922861	1.891289	229.558000
69.973495	1.880519	229.604000
69.987656	1.844626	229.771000
70.002001	1.839928	229.817000
70.050099	1.805869	229.863000
70.064459	1.794891	230.019000
70.078267	1.790206	230.065000
70.092181	1.794321	230.111000
70.106795	1.799839	230.158000
70.120349	1.806645	230.204000
70.134256	1.809894	230.250000
70.148378	1.820611	230.296000
70.162623	1.833708	230.343000
70.177283	1.852028	230.388000
70.191137	1.870076	230.435000
70.205213	1.877551	230.481000
70.219512	1.883121	230.527000
70.233165	1.890827	230.573000
70.246926	1.895012	230.620000
70.261333	1.891970	230.666000
70.309877	1.889284	230.712000
70.323976	1.870976	230.870000
70.338067	1.858048	230.917000
70.385351	1.819553	230.962000
70.399958	1.827081	231.118000
70.413849	1.841155	231.165000
70.427564	1.853631	231.211000
70.441740	1.860322	231.258000
70.456024	1.868919	231.304000
70.470346	1.888636	231.350000
70.484468	1.934289	231.396000
70.498536	1.974605	231.442000
70.513273	1.999202	231.488000
70.527242	2.013987	231.535000
70.541156	2.015355	231.581000
70.555202	2.009901	231.628000
70.569662	1.989943	231.674000
70.583584	1.968291	231.720000
70.597814	1.941340	231.767000
70.646351	1.914467	231.813000
70.660365	1.841248	231.971000
70.674395	1.825551	232.017000
70.721234	1.801097	232.064000
70.735356	1.795247	232.218000
70.749708	1.793117	232.264000
70.764445	1.796712	232.311000
70.778583	1.804254	232.357000
70.792890	1.814444	232.404000
70.807112	1.822553	232.450000
70.821572	1.831338	232.497000
70.835540	1.836468	232.543000
70.849501	1.838511	232.589000
70.862763	1.844468	232.636000
70.877431	1.866760	232.682000
70.891983	1.908653	232.728000
70.905567	1.953221	232.774000
70.920012	1.989890	232.821000
70.934081	2.015083	232.867000
71.047481	2.033645	232.913000
71.061588	2.025257	233.283000
71.075572	2.012813	233.330000
71.090139	2.004047	233.376000
71.103816	2.011320	233.422000
71.118046	2.035042	233.469000
71.131615	2.063922	233.514000
71.145483	2.084839	233.561000
71.160259	2.097060	233.607000
71.174657	2.110831	233.654000
71.188603	2.141579	233.699000
71.202671	2.177400	233.746000
71.217108	2.204453	233.793000
71.231715	2.229399	233.839000
71.245330	2.255039	233.886000
71.259268	2.277155	233.932000
71.273228	2.299521	233.979000
71.320950	2.322161	234.025000
71.335541	2.397951	234.181000
71.350217	2.411163	234.227000
71.462057	2.374419	234.273000
71.476095	2.364570	234.639000
71.489341	2.369500	234.685000
71.503440	2.383742	234.731000
71.517708	2.399255	234.776000
71.532276	2.424870	234.823000
71.545960	2.445288	234.869000
71.560582	2.443356	234.916000
71.574305	2.435190	234.961000
71.588619	2.432256	235.007000
71.602603	2.432028	235.053000
71.654681	2.433360	235.100000
71.668611	2.428671	235.271000
71.683172	2.425352	235.317000
71.730878	2.432382	235.363000
71.744332	2.446760	235.518000
71.759023	2.460877	235.564000
71.772945	2.473824	235.611000
71.786860	2.487918	235.657000
71.801174	2.498516	235.703000
71.815004	2.499324	235.750000
71.829611	2.493534	235.796000
71.843571	2.484503	235.842000
71.857601	2.475793	235.889000
71.872069	2.463852	235.935000
71.885846	2.445793	235.981000
71.899530	2.425266	236.027000
71.913760	2.406443	236.073000
71.928374	2.390624	236.119000
71.942857	2.376382	236.166000
71.991562	2.365161	236.213000
72.005400	2.335882	236.371000
72.019338	2.337679	236.417000
72.066522	2.375808	236.464000
72.080583	2.392820	236.618000
72.094582	2.409754	236.665000
72.109450	2.425868	236.711000
72.123203	2.441212	236.757000
72.137271	2.458966	236.804000
72.151632	2.474875	236.850000
72.166108	2.492019	236.897000
72.179692	2.514869	236.943000
72.193491	2.549037	236.988000
72.207191	2.578752	237.035000
72.221935	2.592047	237.081000
72.236426	2.610471	237.127000
72.250165	2.639172	237.174000
72.264740	2.670999	237.220000
72.279116	2.692179	237.265000
72.327007	2.707345	237.312000
72.341290	2.783071	237.471000
72.354982	2.792994	237.517000
72.402904	2.843239	237.563000
72.416773	2.875004	237.718000
72.431241	2.904160	237.764000
72.445101	2.923363	237.811000
72.459539	2.937709	237.857000
72.473023	2.948859	237.902000
72.486807	2.957698	237.949000
72.501275	2.978363	237.995000
72.515928	3.014835	238.041000
72.529435	3.055397	238.087000
72.543711	3.087062	238.134000
72.558071	3.096740	238.180000
72.571986	3.097640	238.226000
72.586293	3.099120	238.272000
72.600622	3.102236	238.319000
72.614207	3.113245	238.364000
72.727799	3.130601	238.412000
72.742428	3.217295	238.783000
72.756166	3.232250	238.830000
72.770196	3.244210	238.876000
72.784703	3.254383	238.922000
72.798602	3.258653	238.968000
72.812947	3.261540	239.014000
72.826800	3.258527	239.060000
72.841022	3.253734	239.107000
72.855498	3.251073	239.153000
72.869935	3.252113	239.199000
72.883258	3.249098	239.246000
72.897657	3.238985	239.292000
72.910942	3.228909	239.338000
72.925917	3.223003	239.385000
72.940323	3.224485	239.431000
72.954707	3.234246	239.477000
73.002252	3.245399	239.524000
73.016144	3.246977	239.680000
73.029705	3.260680	239.726000
73.141645	3.405004	239.773000
73.156513	3.416868	240.139000
73.170543	3.438541	240.185000
73.184596	3.453466	240.231000
73.198626	3.457145	240.278000
73.213186	3.468114	240.324000
73.227485	3.484493	240.370000
73.241530	3.503011	240.416000
73.255599	3.523406	240.463000
73.269267	3.540509	240.510000
73.282990	3.555651	240.555000
73.335368	3.578680	240.601000
73.349606	3.667419	240.771000
73.363543	3.707830	240.817000
73.410858	3.871070	240.864000
73.424796	3.915071	241.017000
73.438157	3.963150	241.064000
73.452948	4.019116	241.110000
73.467293	4.072613	241.157000
73.481385	4.115400	241.203000
73.495499	4.144754	241.249000
73.509813	4.162906	241.296000
73.523813	4.172909	241.342000
73.537312	4.178880	241.388000
73.551442	4.183769	241.434000
73.565964	4.189152	241.480000
73.580493	4.212926	241.527000
73.594639	4.236753	241.573000
73.608930	4.256256	241.620000
73.623267	4.267558	241.666000
73.671281	4.278737	241.713000
73.685626	4.323439	241.870000
73.699479	4.321709	241.917000
73.746971	4.335552	241.963000
73.761155	4.340805	242.118000
73.775369	4.343196	242.165000
73.789299	4.342922	242.211000
73.803959	4.351744	242.257000
73.818220	4.364250	242.304000
73.831888	4.365688	242.350000
73.845719	4.356167	242.396000
73.860117	4.344212	242.443000
73.874601	4.330956	242.489000
73.888792	4.317233	242.536000
73.902891	4.306955	242.582000
73.917113	4.296636	242.629000
73.931904	4.281260	242.675000
73.945458	4.271538	242.722000
73.959841	4.265917	242.767000
74.007133	4.264940	242.814000
74.020971	4.305770	242.971000
74.035784	4.311171	243.017000
74.083245	4.333527	243.064000
74.097398	4.341799	243.217000
74.111635	4.346297	243.264000
74.125596	4.353712	243.310000
74.139373	4.362878	243.357000
74.153702	4.376732	243.404000
74.168009	4.389775	243.450000
74.182031	4.395446	243.496000
74.195769	4.397900	243.542000
74.210445	4.397700	243.589000
74.224936	4.399789	243.635000
74.238920	4.400953	243.682000
74.252850	4.401571	243.728000
74.266595	4.410002	243.773000
74.280379	4.421065	243.820000
74.294748	4.434823	243.867000
74.408171	4.447049	243.913000
74.422155	4.626916	244.283000
74.436200	4.628979	244.330000
74.450806	4.628968	244.376000
74.465466	4.630362	244.423000
74.479535	4.662598	244.468000
74.493419	4.710773	244.515000
74.507625	4.760111	244.561000
74.521479	4.799424	244.607000
74.535286	4.817123	244.653000
74.549792	4.825617	244.700000
74.564007	4.826750	244.746000
74.578482	4.832331	244.793000
74.592489	4.855747	244.839000
74.606757	4.872877	244.885000
74.620879	4.875764	244.932000
74.635240	4.870539	244.978000
74.682140	4.858996	245.024000
74.696254	4.843191	245.180000
74.710484	4.851205	245.226000
74.822847	5.010687	245.273000
74.837345	5.024918	245.640000
74.851944	5.047506	245.687000
74.866135	5.088318	245.733000
74.880042	5.125816	245.780000
74.894241	5.148634	245.826000
74.907688	5.186903	245.871000
74.922478	5.231740	245.918000
74.936554	5.256717	245.964000
74.950277	5.271178	246.011000
74.964053	5.297099	246.056000
75.015694	5.330456	246.102000
75.030024	5.438774	246.271000
75.044507	5.460425	246.318000
75.091775	5.544117	246.364000
75.106666	5.561450	246.518000
75.120719	5.571799	246.565000
75.134933	5.574808	246.611000
75.149371	5.568733	246.658000
75.163631	5.555533	246.704000
75.177039	5.543478	246.751000
75.190938	5.531400	246.797000
75.205283	5.512494	246.844000
75.220151	5.491178	246.890000
75.234388	5.485367	246.936000
75.247896	5.478367	246.982000
75.262256	5.467224	247.029000
75.277147	5.457754	247.075000
75.291123	5.448569	247.121000
75.305045	5.439423	247.168000
75.352252	5.430871	247.214000
75.366421	5.438594	247.371000
75.380935	5.453414	247.417000
75.428357	5.475421	247.464000
75.442810	5.477369	247.618000
75.457277	5.481804	247.665000
75.471346	5.489046	247.711000
75.484669	5.494815	247.758000
75.499060	5.499692	247.804000
75.513828	5.511547	247.851000
75.528188	5.531832	247.897000
75.541665	5.545841	247.943000
75.556325	5.552566	247.989000
75.570416	5.560293	248.036000
75.584362	5.564844	248.082000
75.598207	5.569383	248.128000
75.612237	5.576214	248.174000
75.626529	5.588559	248.220000
75.640812	5.604169	248.267000
75.689425	5.612781	248.313000
75.703263	5.594494	248.471000
75.717585	5.581009	248.517000
75.764762	5.540954	248.563000
75.778238	5.528930	248.718000
75.792284	5.521340	248.765000
75.807182	5.518578	248.810000
75.820820	5.520143	248.856000
75.835073	5.529468	248.903000
75.848988	5.542908	248.949000
75.863901	5.559820	248.995000
75.877509	5.577358	249.042000
75.891631	5.596473	249.088000
75.904992	5.604769	249.134000
75.920098	5.615348	249.181000
75.933629	5.626843	249.227000
75.947766	5.641357	249.273000
75.962449	5.666542	249.319000
75.976395	5.694824	249.365000
76.089718	5.719686	249.412000
76.104232	5.841266	249.783000
76.118523	5.861604	249.830000
76.132707	5.877222	249.877000
76.147098	5.890508	249.923000
76.161005	5.906735	249.969000
76.174905	5.921251	250.015000
76.188573	5.927633	250.062000
76.203203	5.928994	250.108000
76.217240	5.927589	250.153000
76.231455	5.927622	250.199000
76.244993	5.930039	250.246000
76.259546	5.929659	250.291000
76.273937	5.936932	250.338000
76.287736	5.956269	250.384000
76.301628	5.987158	250.430000
76.315335	6.026655	250.477000
76.362834	6.064593	250.523000
76.377817	6.180458	250.679000
76.392961	6.210854	250.725000
76.504709	6.378562	250.772000
76.519093	6.417052	251.139000
76.532293	6.458813	251.185000
76.546008	6.502542	251.231000
76.560376	6.537219	251.278000
76.574836	6.564890	251.324000
76.589227	6.589556	251.370000
76.603081	6.606071	251.416000
76.617264	6.626348	251.463000
76.631540	6.650951	251.509000
76.645478	6.670268	251.555000
76.696988	6.698298	251.601000
76.711425	6.772176	251.771000
76.725962	6.789356	251.817000
76.773069	6.947025	251.864000
76.786961	7.014982	252.018000
76.801045	7.077888	252.064000
76.814936	7.136325	252.111000
76.828951	7.186247	252.157000
76.843173	7.229363	252.204000
76.858263	7.265927	252.250000
76.871779	7.300610	252.297000
76.886231	7.333538	252.343000
76.900645	7.356620	252.389000
76.914814	7.370576	252.435000
76.928767	7.390112	252.481000
76.942643	7.410809	252.528000
76.955997	7.413473	252.574000
76.970465	7.411899	252.620000
76.985079	7.411888	252.666000
77.033807	7.415591	252.713000
77.047853	7.442038	252.871000
77.062036	7.452207	252.917000
77.108836	7.480730	252.964000
77.122751	7.481014	253.118000
77.136743	7.480291	253.164000
77.151625	7.491573	253.210000
77.165909	7.531039	253.256000
77.179317	7.578125	253.303000
77.193715	7.620799	253.349000
77.207807	7.673254	253.395000
77.222190	7.721518	253.442000
77.235852	7.742895	253.488000
77.250043	7.750915	253.534000
77.264096	7.759481	253.580000
77.278502	7.764649	253.627000
77.292632	7.762502	253.674000
77.306831	7.756492	253.720000
77.321322	7.749228	253.767000
77.369367	7.743419	253.813000
77.384027	7.709807	253.971000
77.398295	7.699687	254.018000
77.444849	7.669294	254.064000
77.458941	7.660632	254.218000
77.473324	7.654630	254.263000
77.487131	7.652918	254.310000
77.501699	7.653484	254.356000
77.515998	7.656931	254.403000
77.529360	7.663103	254.449000
77.543267	7.666727	254.495000
77.557881	7.673864	254.542000
77.571864	7.696323	254.588000
77.586302	7.730111	254.634000
77.600209	7.750714	254.680000
77.614462	7.773091	254.727000
77.629352	7.807844	254.773000
77.643144	7.848245	254.820000
77.657005	7.895393	254.866000
77.770874	7.951436	254.912000
77.784243	8.207068	255.284000
77.799241	8.234470	255.330000
77.812987	8.260739	255.376000
77.827224	8.284795	255.422000
77.840647	8.303638	255.468000
77.855599	8.322397	255.515000
77.869583	8.338440	255.560000
77.884005	8.353183	255.607000
77.897873	8.359381	255.653000
77.912211	8.357807	255.700000
77.926371	8.364322	255.746000
77.940363	8.388967	255.793000
77.954201	8.414002	255.839000
77.968423	8.432605	255.886000
77.982737	8.474594	255.932000
77.996998	8.526107	255.979000
78.045196	8.568366	256.025000
78.059441	8.621518	256.181000
78.073325	8.640635	256.227000
78.185534	8.832636	256.273000
78.199019	8.852941	256.640000
78.213287	8.870365	256.686000
78.227156	8.892154	256.733000
78.241170	8.917672	256.779000
78.255569	8.943928	256.826000
78.270244	8.972464	256.872000
78.284820	9.006230	256.918000
78.298527	9.036859	256.965000
78.312696	9.058635	257.011000
78.326656	9.069921	257.057000
78.377736	9.082629	257.103000
78.392043	9.142967	257.271000
78.406349	9.167303	257.318000
78.453649	9.285157	257.364000
78.467218	9.339166	257.518000
78.481009	9.402820	257.564000
78.495470	9.466367	257.611000
78.509715	9.523356	257.657000
78.524382	9.578871	257.703000
78.538128	9.636407	257.749000
78.552896	9.686365	257.795000
78.566957	9.719968	257.842000
78.580633	9.738026	257.888000
78.594671	9.740201	257.935000
78.608877	9.738047	257.981000
78.623445	9.745422	258.028000
78.637314	9.773360	258.074000
78.651667	9.809723	258.120000
78.665574	9.837810	258.166000
78.714033	9.847364	258.212000
78.728186	9.956900	258.371000
78.743023	10.008795	258.418000
78.789600	10.154157	258.464000
78.804060	10.197472	258.618000
78.817883	10.242582	258.665000
78.831867	10.283981	258.712000
78.846634	10.326464	258.758000
78.861118	10.371448	258.804000
78.874794	10.415070	258.849000
78.888194	10.452902	258.896000
78.902309	10.481938	258.943000
78.916976	10.505489	258.989000
78.931137	10.517924	259.035000
78.945474	10.517724	259.082000
78.959504	10.515206	259.128000
78.974241	10.512179	259.175000
78.988456	10.509957	259.221000
79.002370	10.506558	259.267000
79.050838	10.506465	259.313000
79.064445	10.599259	259.471000
79.078951	10.640882	259.518000
79.125759	10.790238	259.564000
79.140465	10.828690	259.718000
79.154649	10.871338	259.765000
79.168763	10.911791	259.811000
79.182225	10.947089	259.858000
79.197015	10.980649	259.904000
79.211161	11.014614	259.951000
79.224553	11.047461	259.996000
79.238514	11.079234	260.041000
79.252667	11.108251	260.087000
79.267096	11.134686	260.132000
79.280819	11.159268	260.178000
79.294372	11.182148	260.224000
79.307742	11.203096	260.270000
79.322371	11.221863	260.315000
79.337131	11.243662	260.361000
79.451806	11.265296	260.408000
79.465537	11.623884	260.784000
79.479282	11.683830	260.830000
79.493643	11.756088	260.876000
79.508103	11.823405	260.923000
79.522118	11.880408	260.969000
79.536132	11.932255	261.015000
79.550608	11.979067	261.061000
79.565114	12.028686	261.107000
79.579114	12.083084	261.154000
79.592014	12.134614	261.200000
79.606567	12.178004	261.246000
79.621096	12.219487	261.293000
79.635111	12.259500	261.339000
79.649494	12.294090	261.385000
79.663524	12.331423	261.431000
79.677892	12.370757	261.477000
79.725330	12.407225	261.524000
79.739137	12.531272	261.679000
79.753443	12.575487	261.725000
79.865822	12.907028	261.772000
79.879637	12.924950	262.139000
79.893643	12.936348	262.186000
79.908811	12.948951	262.232000
79.922925	12.954060	262.279000
79.937178	12.946381	262.325000
79.950701	12.938947	262.371000
79.964577	12.939619	262.417000
79.978976	12.948344	262.463000
79.992875	12.965541	262.510000
80.006913	12.985610	262.556000
80.059137	13.005827	262.603000
80.072983	13.085627	262.771000
80.087151	13.112146	262.817000
80.133897	13.162763	262.864000
80.148888	13.178728	263.018000
80.163271	13.198685	263.065000
80.177002	13.229397	263.111000
80.191593	13.284367	263.158000
80.205761	13.351723	263.204000
80.219622	13.415811	263.250000
80.233268	13.478015	263.296000
80.247474	13.544150	263.343000
80.261935	13.614759	263.389000
80.275703	13.686303	263.435000
80.289595	13.757979	263.482000
80.304255	13.827441	263.528000
80.318685	13.896533	263.574000
80.332768	13.965048	263.621000
80.346921	14.031249	263.667000
80.394997	14.094680	263.714000
80.408181	14.252692	263.871000
80.422795	14.292715	263.917000
80.470233	14.456403	263.963000
80.484816	14.520233	264.118000
80.498862	14.589358	264.165000
80.512730	14.651090	264.211000
80.526691	14.702584	264.257000
80.540452	14.743408	264.303000
80.554782	14.776962	264.350000
80.569434	14.801739	264.395000
80.583272	14.817094	264.441000
80.597110	14.822512	264.487000
80.612223	14.824682	264.534000
80.625908	14.831186	264.580000
80.640283	14.842590	264.626000
80.654037	14.854830	264.673000
80.668090	14.869730	264.720000
80.682496	14.887159	264.766000
80.730679	14.911941	264.813000
80.745017	15.048606	264.971000
80.758901	15.087583	265.017000
80.806884	15.191095	265.064000
80.820445	15.243603	265.218000
80.834083	15.305194	265.264000
80.848881	15.372315	265.310000
80.862589	15.438669	265.357000
80.876772	15.501632	265.402000
80.890864	15.558539	265.448000
80.905409	15.617974	265.494000
80.918978	15.680010	265.539000
80.932685	15.740585	265.585000
80.945893	15.798023	265.631000
80.960614	15.852591	265.677000
80.974890	15.907309	265.722000
80.989143	15.959658	265.769000
81.003227	16.013202	265.816000
81.017633	16.073569	265.862000
81.132078	16.142251	265.908000
81.146054	16.522094	266.283000
81.160453	16.574921	266.330000
81.174214	16.625955	266.376000
81.188798	16.675218	266.422000
81.203035	16.730178	266.469000
81.216950	16.780248	266.515000
81.230911	16.837585	266.562000
81.244418	16.909122	266.608000
81.259094	16.977721	266.655000
81.273508	17.033850	266.700000
81.287046	17.090429	266.746000
81.301668	17.145061	266.793000
81.316105	17.206502	266.839000
81.330650	17.269194	266.885000
81.344188	17.327568	266.932000
81.358356	17.381164	266.978000
81.405725	17.431139	267.025000
81.419324	17.611381	267.180000
81.434169	17.683603	267.226000
81.546094	18.181022	267.272000
81.560892	18.226790	267.639000
81.574891	18.285242	267.686000
81.589006	18.349967	267.732000
81.602644	18.423770	267.778000
81.617289	18.499277	267.825000
81.630688	18.558928	267.871000
81.645241	18.612981	267.917000
81.659601	18.663452	267.964000
81.673785	18.714183	268.010000
81.688376	18.768435	268.057000
81.739386	18.826840	268.103000
81.753278	19.014775	268.271000
81.767416	19.049889	268.318000
81.814976	19.172440	268.364000
81.829237	19.208807	268.519000
81.843420	19.250655	268.566000
81.857957	19.311258	268.612000
81.871872	19.378334	268.659000
81.885879	19.446708	268.705000
81.900401	19.515964	268.751000
81.914462	19.583231	268.798000
81.928607	19.649882	268.844000
81.942452	19.711251	268.890000
81.956575	19.765737	268.935000
81.971327	19.815430	268.982000
81.985165	19.859089	269.029000
81.998811	19.901998	269.075000
82.013501	19.944132	269.122000
82.027677	19.989182	269.168000
82.075607	20.033167	269.215000
82.090021	20.233290	269.371000
82.103936	20.304965	269.418000
82.151327	20.582314	269.464000
82.165365	20.666502	269.619000
82.179187	20.755248	269.665000
82.193471	20.848918	269.712000
82.207754	20.958929	269.758000
82.221969	21.071954	269.805000
82.235937	21.186631	269.851000
82.250375	21.302728	269.898000
82.265012	21.426492	269.944000
82.279334	21.563848	269.991000
82.293379	21.703004	270.037000
82.307808	21.836655	270.083000
82.321462	21.967354	270.129000
82.334916	22.096285	270.176000
82.349307	22.215879	270.222000
82.363898	22.330270	270.269000
82.411335	22.447796	270.314000
82.425834	22.821532	270.471000
82.440294	22.909720	270.517000
82.486879	23.138629	270.564000
82.501401	23.198603	270.718000
82.515423	23.255374	270.765000
82.529737	23.310125	270.811000
82.544121	23.360593	270.857000
82.558397	23.407759	270.904000
82.572158	23.448856	270.950000
82.586426	23.499542	270.996000
82.600648	23.553167	271.043000
82.614678	23.608401	271.089000
82.628285	23.654561	271.135000
82.642100	23.694323	271.181000
82.657014	23.737118	271.228000
82.671405	23.802883	271.274000
82.685204	23.884171	271.320000
82.699442	23.979918	271.366000
82.812827	24.060318	271.413000
82.827310	24.496386	271.784000
82.841670	24.532026	271.830000
82.855339	24.571037	271.877000
82.869269	24.607387	271.923000
82.883092	24.647920	271.969000
82.897475	24.692860	272.016000
82.911866	24.737900	272.062000
82.925896	24.787674	272.108000
82.939972	24.844143	272.155000
82.954732	24.909410	272.201000
82.969239	24.969685	272.248000
82.983691	25.024966	272.294000
82.997552	25.081030	272.341000
83.011252	25.141861	272.387000
83.025666	25.210334	272.433000
83.039988	25.282435	272.480000
83.087218	25.352833	272.526000
83.101433	25.597866	272.682000
83.115539	25.674795	272.729000
83.227587	26.441446	272.775000
83.242278	26.565695	273.141000
83.256492	26.675876	273.188000
83.270300	26.756490	273.235000
83.283738	26.817988	273.280000
83.297768	26.863330	273.326000
83.312735	26.896935	273.373000
83.327142	26.928474	273.419000
83.341348	26.963915	273.466000
83.355486	27.008790	273.512000
83.369946	27.063957	273.558000
83.419589	27.135680	273.605000
83.434434	27.399478	273.772000
83.448464	27.469027	273.818000
83.496554	27.685695	273.864000
83.510331	27.728479	274.020000
83.524084	27.771429	274.066000
83.538191	27.827752	274.113000
83.552705	27.897268	274.159000
83.566758	27.974605	274.205000
83.580811	28.059146	274.251000
83.594972	28.152919	274.297000
83.609593	28.247977	274.344000
83.623385	28.333845	274.390000
83.637484	28.406797	274.436000
83.651084	28.480991	274.482000
83.665775	28.549874	274.529000
83.679336	28.602194	274.574000
83.693620	28.657477	274.621000
83.707657	28.723537	274.668000
83.756071	28.797268	274.714000
83.770170	29.107318	274.872000
83.784738	29.214272	274.917000
83.831645	29.585878	274.963000
83.846013	29.688186	275.118000
83.860274	29.775899	275.165000
83.874573	29.845568	275.212000
83.888272	29.923931	275.257000
83.903455	30.023504	275.303000
83.917354	30.137372	275.349000
83.930946	30.247980	275.395000
83.944746	30.352622	275.442000
83.958730	30.453545	275.489000
83.973559	30.559110	275.535000
83.987965	30.677059	275.581000
84.001765	30.788202	275.628000
84.016402	30.904466	275.674000
84.030247	31.022425	275.720000
84.044277	31.131899	275.766000
84.092598	31.232293	275.813000
84.106336	31.507847	275.972000
84.120681	31.594054	276.018000
84.168158	31.899175	276.064000
84.182748	31.983697	276.220000
84.196963	32.070265	276.266000
84.210808	32.157349	276.312000
84.224623	32.248655	276.358000
84.239176	32.347390	276.405000
84.253298	32.445832	276.451000
84.267259	32.538859	276.497000
84.281235	32.629385	276.544000
84.295111	32.718588	276.590000
84.309587	32.807713	276.636000
84.323694	32.892345	276.682000
84.337731	32.965803	276.729000
84.351700	33.026771	276.775000
84.366852	33.080163	276.821000
84.380582	33.128772	276.868000
84.493790	33.177975	276.913000
84.507928	33.547566	277.284000
84.521412	33.613353	277.330000
84.535027	33.697271	277.377000
84.549510	33.793535	277.423000
84.563894	33.905555	277.469000
84.578131	34.025750	277.516000
84.592553	34.150865	277.562000
84.607298	34.280988	277.608000
84.620751	34.409023	277.654000
84.634789	34.532169	277.700000
84.648996	34.647909	277.747000
84.663164	34.758790	277.793000
84.677225	34.864045	277.839000
84.691931	34.964114	277.886000
84.705293	35.065519	277.932000
84.719814	35.167977	277.978000
84.767521	35.277255	278.025000
84.781628	35.628622	278.180000
84.795358	35.723468	278.226000
84.907767	36.288205	278.273000
84.921298	36.349232	278.639000
84.935719	36.405571	278.685000
84.950134	36.454719	278.732000
84.964432	36.504218	278.778000
84.978555	36.549496	278.825000
84.992254	36.598712	278.871000
85.006384	36.648812	278.917000
85.020506	36.704081	278.963000
85.034659	36.761920	279.009000
85.048313	36.823589	279.055000
85.100845	36.893754	279.101000
85.115382	37.283367	279.272000
85.129642	37.435377	279.318000
85.175482	37.947097	279.365000
85.190656	38.073196	279.520000
85.204548	38.191227	279.566000
85.218686	38.301336	279.612000
85.233238	38.415618	279.659000
85.247752	38.536345	279.705000
85.261652	38.656528	279.752000
85.276089	38.782578	279.798000
85.289873	38.912081	279.845000
85.304617	39.049949	279.891000
85.318440	39.195697	279.938000
85.332409	39.338878	279.984000
85.346569	39.468893	280.030000
85.360853	39.565917	280.077000
85.375198	39.635488	280.123000
85.389589	39.697359	280.169000
85.436811	39.766836	280.216000
85.450672	40.025085	280.372000
85.464118	40.135058	280.417000
85.511979	40.531586	280.464000
85.526055	40.611393	280.618000
85.541030	40.685842	280.664000
85.554860	40.765444	280.710000
85.568744	40.861063	280.756000
85.582228	40.975032	280.802000
85.596727	41.103191	280.849000
85.610949	41.244655	280.895000
85.625225	41.397829	280.941000
85.639232	41.557874	280.988000
85.653638	41.728948	281.035000
85.668145	41.882794	281.081000
85.682229	42.006767	281.128000
85.696082	42.115723	281.174000
85.710450	42.219788	281.220000
85.724057	42.315247	281.266000
85.772425	42.400010	281.313000
85.787031	42.725392	281.471000
85.800961	42.849682	281.518000
85.848629	43.313287	281.564000
85.862252	43.455032	281.718000
85.876589	43.573447	281.765000
85.890619	43.687631	281.811000
85.904626	43.806780	281.857000
85.918487	43.932645	281.903000
85.932909	44.051475	281.950000
85.947146	44.162989	281.996000
85.961776	44.306011	282.043000
85.975890	44.459064	282.089000
85.990074	44.590252	282.136000
86.004388	44.711230	282.182000
86.018925	44.826138	282.229000
86.032387	44.933085	282.275000
86.046278	45.036750	282.321000
86.060124	45.142686	282.367000
86.173570	45.251641	282.414000
86.187908	46.269248	282.784000
86.202452	46.408440	282.830000
86.216198	46.553992	282.877000
86.230766	46.697675	282.923000
86.244665	46.834379	282.969000
86.259126	46.966882	283.015000
86.272718	47.097160	283.061000
86.286771	47.225007	283.108000
86.301085	47.342102	283.154000
86.315507	47.455697	283.201000
86.329260	47.561033	283.247000
86.343528	47.670484	283.293000
86.358104	47.790308	283.340000
86.372472	47.925069	283.386000
86.386164	48.062842	283.432000
86.399733	48.204694	283.477000
