Sample	2mm tape 2
date	08/01/2025
	
Temperature (K)	77.00
Angle (deg.)	0.000000
field / T	0.050000
	
		
Approx. trace time (s)	60.0	
		
Current / A	V1  -sample/ uV	time/s
0.002115	-2.259742	0.000000
0.002199	-2.248927	0.074000
0.002109	-2.243483	0.120000
0.002091	-2.226991	0.166000
0.002044	-2.223028	0.321000
0.002050	-2.222040	0.368000
0.002050	-2.217679	0.414000
0.002157	-2.216523	0.461000
0.002050	-2.211909	0.507000
0.002008	-2.206443	0.553000
0.002199	-2.200105	0.599000
0.002175	-2.190848	0.645000
0.002080	-2.184695	0.691000
0.011685	-2.172527	0.738000
0.042319	-2.158819	0.785000
0.073505	-2.144139	0.831000
0.103609	-2.125902	0.876000
0.135177	-2.109617	0.923000
0.166120	-2.098258	0.970000
0.271475	-2.090446	1.016000
0.302814	-2.066840	1.174000
0.333163	-2.077629	1.220000
0.435963	-2.078838	1.266000
0.467386	-2.064407	1.420000
0.498330	-2.048151	1.468000
0.529714	-2.035695	1.514000
0.560592	-2.018600	1.561000
0.592584	-2.000533	1.607000
0.623189	-2.001203	1.653000
0.653871	-2.002672	1.700000
0.684061	-2.004979	1.747000
0.715138	-2.011953	1.793000
0.745530	-2.018318	1.839000
0.776544	-2.026445	1.885000
0.807517	-2.031101	1.931000
0.839044	-2.008941	1.978000
0.870020	-1.991524	2.024000
0.900816	-1.983386	2.071000
1.146851	-1.962731	2.117000
1.178514	-1.782085	2.486000
1.208465	-1.772521	2.532000
1.239578	-1.768379	2.579000
1.269099	-1.766960	2.625000
1.300751	-1.770072	2.671000
1.331420	-1.769757	2.718000
1.363054	-1.768916	2.764000
1.394035	-1.763576	2.810000
1.425322	-1.761779	2.857000
1.456085	-1.762588	2.903000
1.487144	-1.763324	2.950000
1.517935	-1.769546	2.996000
1.548608	-1.775705	3.043000
1.579049	-1.783998	3.089000
1.609901	-1.792375	3.135000
1.641296	-1.799668	3.182000
1.745909	-1.803641	3.228000
1.776902	-1.802937	3.384000
1.807169	-1.797198	3.428000
2.051926	-1.728825	3.474000
2.081282	-1.712414	3.842000
2.112821	-1.703583	3.888000
2.143071	-1.683911	3.935000
2.174370	-1.670445	3.980000
2.204978	-1.658240	4.027000
2.236958	-1.641439	4.073000
2.267852	-1.628014	4.120000
2.299372	-1.619919	4.167000
2.329831	-1.614321	4.213000
2.360791	-1.611141	4.259000
2.472537	-1.616855	4.304000
2.503034	-1.612777	4.474000
2.534799	-1.603894	4.520000
2.638079	-1.577501	4.566000
2.667362	-1.577239	4.721000
2.699079	-1.576556	4.768000
2.729872	-1.579388	4.813000
2.761362	-1.578466	4.860000
2.791163	-1.569509	4.906000
2.823077	-1.567076	4.952000
2.853645	-1.568481	4.998000
2.885231	-1.565809	5.045000
2.914091	-1.559913	5.091000
2.945766	-1.548914	5.137000
2.976655	-1.540307	5.184000
3.007146	-1.529081	5.230000
3.037629	-1.520674	5.276000
3.069340	-1.494882	5.322000
3.100218	-1.449068	5.369000
3.206444	-1.401227	5.415000
3.237722	-1.281161	5.574000
3.267328	-1.278770	5.620000
3.370444	-1.234242	5.666000
3.401940	-1.219320	5.821000
3.432797	-1.202888	5.868000
3.464090	-1.183749	5.914000
3.494429	-1.178316	5.960000
3.525823	-1.170315	6.007000
3.556946	-1.163184	6.052000
3.587679	-1.165031	6.099000
3.617292	-1.172109	6.146000
3.649206	-1.178484	6.192000
3.680023	-1.159482	6.239000
3.711459	-1.130550	6.285000
3.741481	-1.117662	6.332000
3.773623	-1.122726	6.378000
3.804338	-1.127939	6.424000
3.835571	-1.132931	6.471000
3.940426	-1.141696	6.517000
3.969596	-1.183634	6.673000
4.000826	-1.205499	6.720000
4.103758	-1.250508	6.766000
4.135290	-1.254723	6.920000
4.166351	-1.253225	6.966000
4.197157	-1.243785	7.012000
4.227296	-1.236309	7.058000
4.257564	-1.226766	7.105000
4.288736	-1.228559	7.151000
4.319800	-1.201396	7.198000
4.351189	-1.213899	7.244000
4.381828	-1.195114	7.290000
4.413354	-1.182300	7.337000
4.443684	-1.166937	7.383000
4.475335	-1.146302	7.429000
4.506314	-1.125052	7.476000
4.536745	-1.113297	7.522000
4.566505	-1.106174	7.569000
4.814576	-1.107519	7.615000
4.845701	-1.241952	7.986000
4.876718	-1.272091	8.033000
4.907492	-1.299105	8.079000
4.938068	-1.322042	8.125000
4.969600	-1.339922	8.172000
5.000853	-1.342519	8.218000
5.031949	-1.337611	8.264000
5.062832	-1.327965	8.310000
5.092818	-1.318535	8.356000
5.123535	-1.316220	8.402000
5.153634	-1.315348	8.448000
5.184857	-1.311228	8.495000
5.216042	-1.301977	8.541000
5.247316	-1.297468	8.588000
5.277380	-1.291827	8.634000
5.309277	-1.290284	8.679000
5.413085	-1.286206	8.727000
5.443379	-1.276579	8.883000
5.473563	-1.277596	8.929000
5.718122	-1.339953	8.975000
5.749964	-1.328164	9.342000
5.780818	-1.324033	9.389000
5.812247	-1.313650	9.435000
5.842979	-1.304807	9.481000
5.874279	-1.313428	9.528000
5.905438	-1.328878	9.574000
5.936403	-1.316405	9.621000
5.966382	-1.285584	9.667000
5.996609	-1.259778	9.713000
6.027947	-1.240155	9.760000
6.140585	-1.232712	9.806000
6.172051	-1.251556	9.974000
6.202110	-1.246354	10.020000
6.305293	-1.234819	10.067000
6.335787	-1.247164	10.221000
6.366847	-1.261373	10.266000
6.397868	-1.272081	10.313000
6.428410	-1.275762	10.359000
6.459824	-1.279712	10.405000
6.489685	-1.285585	10.452000
6.520709	-1.301536	10.498000
6.550941	-1.305175	10.544000
6.582603	-1.313713	10.591000
6.613575	-1.318021	10.637000
6.644680	-1.328668	10.684000
6.675609	-1.336054	10.730000
6.706569	-1.337410	10.776000
6.737329	-1.345345	10.823000
6.768951	-1.344788	10.869000
6.874128	-1.341761	10.915000
6.904099	-1.356076	11.074000
6.935381	-1.375341	11.120000
7.039376	-1.411297	11.167000
7.069450	-1.401838	11.321000
7.101433	-1.392946	11.368000
7.132133	-1.389866	11.414000
7.163347	-1.396161	11.460000
7.192730	-1.391074	11.506000
7.223948	-1.384905	11.553000
7.254685	-1.368689	11.599000
7.285956	-1.349885	11.645000
7.316831	-1.332292	11.692000
7.347992	-1.322242	11.738000
7.378929	-1.308658	11.784000
7.410560	-1.286907	11.831000
7.440766	-1.262201	11.877000
7.470909	-1.232282	11.923000
7.501283	-1.194739	11.969000
7.606840	-1.150462	12.016000
7.638087	-1.075043	12.174000
7.668726	-1.087046	12.220000
7.772345	-1.149363	12.267000
7.804270	-1.162167	12.421000
7.834115	-1.171134	12.468000
7.865462	-1.174970	12.514000
7.894922	-1.179419	12.561000
7.926677	-1.180425	12.607000
7.957511	-1.178003	12.653000
7.989100	-1.163646	12.700000
8.019565	-1.149773	12.746000
8.051518	-1.139526	12.793000
8.082368	-1.129899	12.839000
8.113400	-1.103179	12.885000
8.143126	-1.080130	12.932000
8.174033	-1.075296	12.978000
8.204712	-1.077913	13.024000
8.236220	-1.076242	13.071000
8.481759	-1.071554	13.117000
8.513237	-1.149667	13.486000
8.544225	-1.166800	13.533000
8.575742	-1.172862	13.579000
8.606609	-1.155360	13.626000
8.638282	-1.146207	13.672000
8.668595	-1.149720	13.718000
8.699097	-1.149057	13.764000
8.728164	-1.144222	13.810000
8.760086	-1.140572	13.857000
8.791013	-1.130412	13.903000
8.822667	-1.110872	13.950000
8.853404	-1.088801	13.996000
8.884903	-1.062642	14.043000
8.915862	-1.038541	14.089000
8.946943	-1.027622	14.135000
8.977489	-1.008893	14.181000
9.080015	-1.001284	14.228000
9.111386	-1.019655	14.384000
9.142925	-1.038962	14.430000
9.387804	-1.155947	14.477000
9.418254	-1.168323	14.843000
9.448918	-1.176155	14.889000
9.480324	-1.188404	14.936000
9.511658	-1.194182	14.982000
9.541777	-1.197193	15.028000
9.571885	-1.196699	15.075000
9.602740	-1.193804	15.121000
9.634531	-1.184734	15.168000
9.665294	-1.170377	15.214000
9.696447	-1.137334	15.260000
9.807459	-1.112259	15.307000
9.838443	-1.087592	15.474000
9.869079	-1.076799	15.520000
9.973156	-1.021483	15.566000
10.003685	-0.999298	15.721000
10.033987	-0.975734	15.767000
10.065345	-0.947420	15.813000
10.096551	-0.943993	15.860000
10.126468	-0.948292	15.906000
10.156752	-0.948302	15.952000
10.188028	-0.934145	15.998000
10.219282	-0.902415	16.044000
10.250552	-0.863037	16.091000
10.281481	-0.824424	16.138000
10.312791	-0.803934	16.184000
10.344075	-0.775754	16.231000
10.373795	-0.741420	16.277000
10.403707	-0.709289	16.323000
10.435054	-0.691966	16.369000
10.541010	-0.690455	16.416000
10.572584	-0.712531	16.574000
10.603102	-0.717657	16.620000
10.707096	-0.724317	16.666000
10.737764	-0.734521	16.821000
10.768203	-0.752934	16.868000
10.798956	-0.766516	16.914000
10.829601	-0.778933	16.961000
10.860373	-0.789661	17.007000
10.891672	-0.801049	17.053000
10.923211	-0.817145	17.100000
10.954098	-0.835709	17.146000
10.984802	-0.857070	17.193000
11.016055	-0.873261	17.239000
11.047031	-0.879238	17.285000
11.077180	-0.886128	17.331000
11.106892	-0.894123	17.378000
11.138664	-0.903089	17.424000
11.169408	-0.916846	17.470000
11.275160	-0.926820	17.516000
11.306316	-0.938297	17.674000
11.336689	-0.941482	17.720000
11.440225	-0.986172	17.765000
11.470175	-0.993654	17.922000
11.501973	-1.012739	17.968000
11.532688	-1.030355	18.014000
11.563909	-1.041117	18.061000
11.595242	-1.042073	18.107000
11.626347	-1.046613	18.153000
11.656809	-1.049725	18.200000
11.687311	-1.054780	18.246000
11.718211	-1.063598	18.292000
11.748366	-1.072437	18.338000
11.778657	-1.079667	18.384000
11.809388	-1.091428	18.429000
11.840909	-1.100677	18.476000
11.872018	-1.109074	18.522000
11.902856	-1.110242	18.569000
12.150663	-1.107183	18.615000
12.180444	-1.112406	18.986000
12.212944	-1.118878	19.032000
12.243493	-1.121843	19.079000
12.274416	-1.125967	19.125000
12.303818	-1.126804	19.171000
12.335235	-1.123428	19.217000
12.365720	-1.119726	19.264000
12.397256	-1.117030	19.310000
12.428142	-1.118593	19.357000
12.459723	-1.119894	19.403000
12.490344	-1.121048	19.449000
12.520786	-1.115249	19.496000
12.552623	-1.107897	19.542000
12.582917	-1.098932	19.588000
12.613329	-1.079593	19.634000
12.643041	-1.049766	19.681000
12.748180	-1.022283	19.727000
12.779331	-0.976797	19.883000
12.810266	-0.970237	19.929000
13.054880	-1.010983	19.975000
13.086456	-1.027683	20.342000
13.115900	-1.047842	20.388000
13.145822	-1.068336	20.434000
13.176636	-1.091963	20.480000
13.207977	-1.115269	20.527000
13.238386	-1.141778	20.573000
13.270054	-1.163423	20.619000
13.300893	-1.173029	20.665000
13.331962	-1.176038	20.711000
13.361763	-1.182299	20.758000
13.474262	-1.202392	20.804000
13.506368	-1.269456	20.973000
13.537453	-1.273871	21.020000
13.641120	-1.309192	21.067000
13.672017	-1.317517	21.221000
13.701624	-1.327093	21.268000
13.733108	-1.345365	21.314000
13.763934	-1.371199	21.361000
13.795255	-1.400721	21.407000
13.826137	-1.430275	21.454000
13.857671	-1.453281	21.500000
13.888330	-1.466682	21.547000
13.919753	-1.471821	21.593000
13.950370	-1.469141	21.639000
13.981581	-1.457538	21.686000
14.011967	-1.437212	21.732000
14.042307	-1.411725	21.778000
14.072485	-1.386711	21.824000
14.104288	-1.361614	21.871000
14.209176	-1.344293	21.917000
14.240291	-1.304744	22.074000
14.271621	-1.291407	22.121000
14.373634	-1.213603	22.167000
14.404321	-1.207688	22.321000
14.435220	-1.211254	22.367000
14.466631	-1.213203	22.414000
14.498343	-1.220650	22.461000
14.529257	-1.213351	22.507000
14.559994	-1.194580	22.553000
14.590955	-1.187155	22.599000
14.622223	-1.189871	22.646000
14.652164	-1.180820	22.692000
14.682594	-1.155002	22.739000
14.713844	-1.125030	22.785000
14.744624	-1.108443	22.832000
14.775513	-1.103398	22.878000
14.806909	-1.098511	22.924000
14.838299	-1.090807	22.970000
14.943241	-1.091575	23.017000
14.974128	-1.030006	23.174000
15.004090	-0.991899	23.220000
15.107946	-0.930951	23.267000
15.138406	-0.933042	23.421000
15.170089	-0.934640	23.467000
15.201311	-0.941503	23.513000
15.232277	-0.948660	23.560000
15.261756	-0.958603	23.606000
15.292963	-0.974851	23.652000
15.323545	-0.991752	23.699000
15.354590	-1.001566	23.745000
15.385930	-1.014851	23.792000
15.417079	-1.034683	23.838000
15.448602	-1.050974	23.885000
15.479176	-1.064858	23.931000
15.510348	-1.067875	23.977000
15.541169	-1.071584	24.024000
15.572095	-1.077755	24.070000
15.819151	-1.078437	24.116000
15.849959	-1.153074	24.486000
15.880230	-1.163013	24.533000
15.910914	-1.172556	24.579000
15.941312	-1.175189	24.625000
15.972442	-1.180935	24.672000
16.003385	-1.176574	24.718000
16.034982	-1.168374	24.764000
16.065980	-1.151405	24.811000
16.096491	-1.128922	24.857000
16.127818	-1.101728	24.903000
16.158454	-1.085857	24.950000
16.189207	-1.066676	24.996000
16.218806	-1.047916	25.042000
16.250561	-1.042839	25.088000
16.281764	-1.046875	25.135000
16.313174	-1.042881	25.181000
16.416962	-1.019507	25.228000
16.447091	-0.964310	25.383000
16.478247	-0.941618	25.429000
16.722642	-0.860941	25.475000
16.753336	-0.862743	25.842000
16.784667	-0.862094	25.889000
16.814959	-0.846616	25.935000
16.846425	-0.836915	25.982000
16.877395	-0.830223	26.028000
16.908797	-0.839359	26.074000
16.939447	-0.859651	26.120000
16.970444	-0.879512	26.167000
17.000349	-0.898201	26.212000
17.030755	-0.912800	26.259000
17.144053	-0.932211	26.306000
17.175227	-0.995735	26.474000
17.206566	-1.009879	26.521000
17.308293	-1.032434	26.567000
17.339211	-1.028682	26.722000
17.370195	-1.025371	26.767000
17.400631	-1.025907	26.814000
17.432480	-1.028871	26.860000
17.463160	-1.014767	26.906000
17.494816	-0.999129	26.952000
17.524653	-0.983532	26.999000
17.556153	-0.964824	27.045000
17.586628	-0.937004	27.092000
17.616976	-0.904865	27.138000
17.647254	-0.874803	27.184000
17.679321	-0.845795	27.230000
17.710308	-0.819893	27.277000
17.740948	-0.795208	27.323000
17.772358	-0.765719	27.369000
17.876953	-0.734447	27.415000
17.908714	-0.627215	27.574000
17.938576	-0.593258	27.620000
18.041953	-0.513414	27.666000
18.073490	-0.481106	27.821000
18.103926	-0.453944	27.868000
18.135555	-0.439650	27.914000
18.165895	-0.442377	27.960000
18.196216	-0.444193	28.006000
18.225755	-0.450536	28.052000
18.257657	-0.453746	28.098000
18.288850	-0.452948	28.145000
18.319749	-0.458320	28.191000
18.350171	-0.463835	28.238000
18.381925	-0.480623	28.284000
18.412839	-0.492426	28.330000
18.444507	-0.490607	28.377000
18.474647	-0.477070	28.423000
18.505421	-0.463751	28.469000
18.610733	-0.455851	28.515000
18.640988	-0.433013	28.674000
18.672583	-0.400787	28.720000
18.776472	-0.376739	28.766000
18.807564	-0.395993	28.921000
18.838922	-0.408326	28.968000
18.869652	-0.418886	29.015000
18.900182	-0.429835	29.061000
18.930338	-0.445271	29.108000
18.961784	-0.461002	29.154000
18.992656	-0.478583	29.200000
19.023786	-0.470700	29.247000
19.054435	-0.452371	29.293000
19.086269	-0.439985	29.339000
19.117145	-0.446622	29.386000
19.148110	-0.453251	29.432000
19.177512	-0.458478	29.478000
19.208932	-0.473738	29.524000
19.239451	-0.496094	29.571000
19.486095	-0.507391	29.617000
19.516674	-0.558650	29.986000
19.547208	-0.545312	30.033000
19.578664	-0.504701	30.079000
19.609924	-0.468641	30.125000
19.641103	-0.447054	30.172000
19.672367	-0.442702	30.218000
19.703481	-0.441695	30.264000
19.734163	-0.426730	30.311000
19.763349	-0.414880	30.357000
19.794444	-0.404698	30.403000
19.825447	-0.394346	30.450000
19.856332	-0.389335	30.495000
19.887074	-0.392575	30.541000
19.918563	-0.396309	30.588000
19.949704	-0.398949	30.634000
19.980964	-0.416945	30.680000
20.084197	-0.436956	30.726000
20.114602	-0.464841	30.883000
20.145030	-0.465301	30.929000
20.389996	-0.484238	30.976000
20.421668	-0.507160	31.342000
20.452515	-0.521559	31.388000
20.483037	-0.534613	31.435000
20.514274	-0.545702	31.482000
20.545944	-0.546300	31.527000
20.575963	-0.531028	31.574000
20.605861	-0.519058	31.620000
20.636969	-0.519815	31.667000
20.668587	-0.534245	31.713000
20.699165	-0.538134	31.760000
20.812145	-0.546227	31.806000
20.841651	-0.606459	31.973000
20.873434	-0.632314	32.021000
20.976955	-0.699505	32.067000
21.008637	-0.712748	32.223000
21.039502	-0.724924	32.269000
21.070872	-0.737612	32.315000
21.101035	-0.747597	32.362000
21.132395	-0.761167	32.408000
21.162860	-0.767910	32.454000
21.193152	-0.776541	32.501000
21.223538	-0.787048	32.547000
21.254942	-0.786365	32.593000
21.285640	-0.779644	32.639000
21.316479	-0.761964	32.685000
21.347395	-0.739827	32.732000
21.379260	-0.709017	32.778000
21.409875	-0.682642	32.824000
21.439743	-0.684592	32.871000
21.544897	-0.689931	32.917000
21.575392	-0.691095	33.074000
21.606883	-0.693967	33.121000
21.710458	-0.664347	33.167000
21.741230	-0.652376	33.320000
21.772194	-0.636811	33.367000
21.801561	-0.617241	33.414000
21.832953	-0.602474	33.460000
21.863747	-0.592048	33.506000
21.894527	-0.581318	33.552000
21.925149	-0.575422	33.598000
21.956828	-0.578027	33.645000
21.987479	-0.587907	33.690000
22.018668	-0.605060	33.737000
22.049062	-0.619532	33.783000
22.079994	-0.634445	33.830000
22.110069	-0.650589	33.876000
22.140866	-0.663706	33.923000
22.172504	-0.675739	33.969000
22.277647	-0.691524	34.015000
22.309606	-0.754728	34.174000
22.340257	-0.769368	34.220000
22.444249	-0.818101	34.267000
22.474850	-0.830337	34.421000
22.504163	-0.846436	34.468000
22.535999	-0.858402	34.514000
22.566748	-0.876533	34.560000
22.598029	-0.884408	34.607000
22.628108	-0.901952	34.653000
22.660367	-0.917349	34.699000
22.691570	-0.929289	34.746000
22.722849	-0.945517	34.792000
22.752361	-0.956269	34.839000
22.783337	-0.965906	34.885000
22.813814	-0.974682	34.931000
22.845494	-0.981366	34.978000
22.876111	-0.986012	35.024000
22.907884	-0.989238	35.070000
23.153422	-0.996133	35.117000
23.184343	-1.078468	35.486000
23.215368	-1.089808	35.533000
23.247074	-1.096430	35.579000
23.278167	-1.099761	35.626000
23.308909	-1.100539	35.672000
23.338749	-1.090680	35.719000
23.369950	-1.075945	35.765000
23.400403	-1.054694	35.811000
23.431877	-1.030594	35.858000
23.462464	-1.007420	35.903000
23.493642	-0.983174	35.950000
23.525294	-0.968019	35.997000
23.555651	-0.959139	36.043000
23.587157	-0.957487	36.089000
23.617709	-0.961671	36.135000
23.648444	-0.965465	36.182000
23.751939	-0.971319	36.228000
23.783314	-0.970878	36.384000
23.814115	-0.976658	36.431000
24.058591	-1.123731	36.477000
24.090401	-1.144619	36.844000
24.121275	-1.165058	36.890000
24.151534	-1.181375	36.936000
24.182329	-1.203775	36.982000
24.212733	-1.229376	37.029000
24.244099	-1.253841	37.075000
24.274917	-1.275528	37.122000
24.306260	-1.295610	37.169000
24.337095	-1.315095	37.215000
24.368123	-1.330765	37.261000
24.478479	-1.346426	37.307000
24.508993	-1.385754	37.474000
24.540960	-1.389401	37.521000
24.644307	-1.373173	37.567000
24.675603	-1.364134	37.721000
24.706514	-1.347570	37.768000
24.736731	-1.331132	37.814000
24.766996	-1.312816	37.861000
24.798275	-1.303998	37.907000
24.829098	-1.300317	37.953000
24.859778	-1.296093	37.999000
24.890974	-1.297120	38.046000
24.922114	-1.314148	38.092000
24.953299	-1.337092	38.138000
24.984131	-1.352678	38.185000
25.014703	-1.355705	38.232000
25.045635	-1.358680	38.278000
25.076052	-1.358638	38.324000
25.107016	-1.359058	38.371000
25.212149	-1.358155	38.416000
25.243142	-1.341822	38.573000
25.273826	-1.340161	38.619000
25.376358	-1.265627	38.665000
25.407061	-1.215362	38.820000
25.438073	-1.179748	38.867000
25.468342	-1.157886	38.913000
25.500292	-1.150670	38.959000
25.531327	-1.163547	39.005000
25.562097	-1.190259	39.052000
25.592864	-1.228325	39.098000
25.624245	-1.267997	39.144000
25.655256	-1.307586	39.191000
25.684942	-1.342180	39.237000
25.715586	-1.376116	39.283000
25.746806	-1.400730	39.329000
25.777772	-1.416423	39.376000
25.808502	-1.430433	39.421000
25.839086	-1.442602	39.468000
25.946389	-1.456990	39.514000
25.977619	-1.520566	39.674000
26.009140	-1.530876	39.721000
26.110537	-1.507722	39.767000
26.141349	-1.507491	39.921000
26.173138	-1.511096	39.968000
26.203849	-1.512525	40.015000
26.235779	-1.516288	40.061000
26.266705	-1.524253	40.108000
26.297222	-1.525978	40.154000
26.328461	-1.522384	40.200000
26.358839	-1.522405	40.247000
26.388953	-1.525821	40.293000
26.419729	-1.519062	40.339000
26.450854	-1.509393	40.384000
26.481826	-1.505125	40.430000
26.512795	-1.501762	40.477000
26.543094	-1.493638	40.523000
26.574424	-1.494206	40.569000
26.821775	-1.493165	40.616000
26.853366	-1.369022	40.987000
26.884560	-1.360142	41.033000
26.913606	-1.353625	41.079000
26.944983	-1.347981	41.126000
26.975154	-1.342400	41.172000
27.006597	-1.335831	41.218000
27.037379	-1.333225	41.264000
27.068489	-1.331490	41.310000
27.099207	-1.324375	41.357000
27.130304	-1.319415	41.403000
27.161499	-1.316385	41.449000
27.191553	-1.312316	41.495000
27.222147	-1.295799	41.541000
27.252283	-1.285594	41.588000
27.283852	-1.275003	41.634000
27.314723	-1.271826	41.681000
27.419677	-1.269676	41.727000
27.450797	-1.317852	41.883000
27.482076	-1.333383	41.930000
27.725229	-1.206450	41.976000
27.756829	-1.177716	42.343000
27.786898	-1.158220	42.389000
27.818279	-1.144673	42.435000
27.848513	-1.137605	42.482000
27.880188	-1.128837	42.528000
27.911147	-1.127234	42.574000
27.942641	-1.127234	42.621000
27.972957	-1.130799	42.667000
28.004799	-1.131312	42.714000
28.035510	-1.128398	42.760000
28.147108	-1.123143	42.807000
28.178095	-1.092729	42.974000
28.208430	-1.089523	43.021000
28.312838	-1.075241	43.067000
28.342425	-1.072109	43.222000
28.372980	-1.065214	43.268000
28.404329	-1.057132	43.315000
28.435042	-1.047998	43.361000
28.466705	-1.038192	43.407000
28.497890	-1.028502	43.454000
28.529200	-1.018770	43.500000
28.559562	-1.013589	43.547000
28.591239	-1.007902	43.593000
28.621143	-1.002321	43.640000
28.651363	-1.002763	43.686000
28.681625	-1.001607	43.732000
28.713488	-1.002447	43.779000
28.744377	-1.006652	43.825000
28.775822	-1.016142	43.871000
28.880843	-1.016668	43.917000
28.911101	-0.990657	44.074000
28.942716	-0.973978	44.121000
29.044026	-0.871457	44.167000
29.075112	-0.839546	44.320000
29.106297	-0.803450	44.366000
29.136537	-0.768256	44.413000
29.168339	-0.745174	44.459000
29.199084	-0.715360	44.505000
29.230060	-0.686594	44.552000
29.259893	-0.646574	44.598000
29.290066	-0.608875	44.644000
29.321714	-0.573866	44.690000
29.352867	-0.543819	44.737000
29.384033	-0.517439	44.783000
29.415220	-0.488536	44.830000
29.446674	-0.466664	44.876000
29.477698	-0.448164	44.923000
29.508516	-0.426122	44.970000
29.613999	-0.410076	45.016000
29.643666	-0.346169	45.174000
29.674439	-0.330070	45.220000
29.778601	-0.270339	45.267000
29.810207	-0.253298	45.422000
29.840983	-0.230710	45.468000
29.871844	-0.206409	45.514000
29.902365	-0.180713	45.561000
29.933358	-0.161059	45.607000
29.963648	-0.132599	45.653000
29.994193	-0.107491	45.700000
30.025144	-0.085115	45.746000
30.054376	-0.057116	45.793000
30.085502	-0.028733	45.840000
30.116374	-0.000837	45.886000
30.147242	0.029733	45.932000
30.178714	0.060428	45.978000
30.208278	0.086047	46.024000
30.238097	0.117550	46.070000
30.486503	0.151203	46.116000
30.517227	0.338991	46.487000
30.546884	0.387380	46.533000
30.577644	0.417916	46.579000
30.609437	0.408731	46.626000
30.640389	0.384710	46.672000
30.671646	0.365256	46.718000
30.702458	0.352276	46.765000
30.733809	0.349606	46.811000
30.764404	0.358614	46.858000
30.795023	0.381767	46.903000
30.825274	0.405092	46.951000
30.856736	0.422351	46.997000
30.887581	0.437556	47.044000
30.918840	0.448610	47.090000
30.949879	0.461519	47.136000
30.981410	0.470151	47.183000
31.085430	0.480094	47.229000
31.116877	0.526730	47.385000
31.147676	0.523447	47.432000
31.392744	0.498307	47.479000
31.422271	0.484360	47.846000
31.453877	0.475739	47.893000
31.484238	0.470926	47.939000
31.515823	0.464635	47.985000
31.546467	0.470402	48.031000
31.578265	0.485807	48.078000
31.609064	0.497531	48.124000
31.639475	0.502610	48.170000
31.669905	0.504948	48.216000
31.700562	0.509404	48.262000
31.812408	0.510178	48.309000
31.842750	0.517499	48.474000
31.873183	0.519389	48.521000
31.975517	0.548384	48.566000
32.006051	0.554099	48.721000
32.038083	0.553229	48.768000
32.069266	0.550765	48.814000
32.100361	0.543822	48.861000
32.130473	0.530777	48.907000
32.162004	0.521948	48.953000
32.192323	0.518444	48.999000
32.222891	0.520027	49.046000
32.252905	0.525157	49.092000
32.284795	0.531344	49.139000
32.315840	0.528943	49.185000
32.346923	0.540761	49.231000
32.377696	0.560622	49.277000
32.409013	0.564661	49.324000
32.439978	0.553439	49.370000
32.544811	0.550723	49.416000
32.574565	0.605138	49.574000
32.604538	0.628276	49.619000
32.708211	0.667058	49.665000
32.739905	0.674310	49.820000
32.769928	0.684631	49.865000
32.799275	0.689014	49.911000
32.829064	0.687594	49.956000
32.860547	0.689413	50.002000
32.890851	0.697673	50.048000
32.921911	0.705797	50.093000
32.952180	0.711000	50.139000
32.983797	0.720375	50.185000
33.013548	0.727237	50.231000
33.043302	0.733523	50.277000
33.073471	0.737863	50.322000
33.104754	0.737989	50.368000
33.135546	0.735361	50.413000
33.166664	0.730779	50.459000
33.278078	0.732850	50.505000
33.308327	0.800555	50.674000
33.340006	0.819946	50.720000
33.443541	0.842897	50.766000
33.473314	0.843801	50.921000
33.503391	0.846014	50.967000
33.533622	0.857023	51.011000
33.564839	0.862698	51.058000
33.596211	0.871915	51.104000
33.627325	0.876750	51.150000
33.657736	0.886827	51.197000
33.689692	0.895720	51.244000
33.720591	0.901635	51.290000
33.750837	0.911556	51.337000
33.780725	0.919253	51.383000
33.812047	0.931617	51.429000
33.842573	0.942514	51.474000
33.873576	0.959230	51.521000
33.904517	0.979312	51.567000
34.152801	0.997358	51.614000
34.184433	1.011330	51.987000
34.215693	1.007103	52.033000
34.246788	1.006769	52.079000
34.277630	1.002352	52.126000
34.308513	0.996093	52.172000
34.339555	1.004691	52.218000
34.369436	1.012210	52.264000
34.400365	1.005436	52.311000
34.430884	1.002415	52.357000
34.462544	1.001892	52.404000
34.492628	0.992202	52.450000
34.524461	0.975896	52.496000
34.555540	0.954471	52.542000
34.586735	0.924328	52.589000
34.617169	0.890644	52.635000
34.647400	0.866776	52.681000
34.750485	0.869629	52.727000
34.781853	0.897136	52.883000
34.813355	0.895878	52.929000
35.057996	0.711683	52.976000
35.089322	0.697904	53.343000
35.120574	0.697662	53.390000
35.151888	0.698997	53.436000
35.182395	0.696622	53.482000
35.212272	0.697168	53.529000
35.243313	0.689285	53.575000
35.274151	0.684829	53.621000
35.304946	0.683327	53.668000
35.335638	0.684777	53.714000
35.367082	0.688309	53.760000
35.478819	0.687625	53.806000
35.509272	0.665838	53.974000
35.540298	0.647309	54.021000
35.644225	0.652542	54.067000
35.675546	0.653289	54.222000
35.705865	0.654539	54.268000
35.737183	0.653993	54.314000
35.766580	0.657966	54.360000
35.797264	0.664461	54.406000
35.827886	0.671556	54.452000
35.859765	0.680773	54.498000
35.890453	0.693468	54.545000
35.920979	0.709602	54.591000
35.952554	0.733027	54.638000
35.984068	0.759040	54.684000
36.014041	0.789583	54.730000
36.044441	0.810603	54.776000
36.075290	0.829746	54.823000
36.106169	0.838181	54.869000
36.212320	0.841575	54.916000
36.242589	0.850929	55.075000
36.274145	0.856521	55.121000
36.378494	0.891998	55.167000
36.407887	0.875081	55.322000
36.439063	0.862372	55.368000
36.469190	0.853218	55.414000
36.500592	0.851434	55.460000
36.531103	0.851581	55.506000
36.562778	0.847689	55.553000
36.593489	0.839994	55.599000
36.624799	0.829294	55.646000
36.655575	0.813157	55.692000
36.686754	0.798904	55.738000
36.717473	0.783938	55.785000
36.747819	0.774794	55.831000
36.778599	0.756276	55.878000
36.810066	0.741004	55.924000
36.840850	0.719461	55.970000
36.946075	0.708466	56.016000
36.977201	0.664577	56.174000
37.008342	0.644051	56.220000
37.109437	0.635421	56.266000
37.141446	0.645270	56.422000
37.172380	0.658534	56.468000
37.203678	0.677725	56.515000
37.234443	0.695340	56.561000
37.266425	0.717979	56.608000
37.296974	0.733848	56.654000
37.327973	0.760911	56.700000
37.358369	0.782698	56.746000
37.388730	0.809867	56.793000
37.419349	0.845163	56.839000
37.450525	0.880473	56.885000
37.481062	0.908661	56.932000
37.513014	0.927747	56.978000
37.544028	0.936684	57.024000
37.574858	0.937909	57.071000
37.821071	0.934869	57.117000
37.852784	0.788110	57.487000
37.883687	0.774667	57.533000
37.914882	0.771356	57.580000
37.944701	0.767489	57.626000
37.976008	0.764987	57.672000
38.006453	0.764515	57.719000
38.037341	0.759260	57.765000
38.067859	0.750063	57.811000
38.099189	0.738976	57.858000
38.130864	0.727140	57.903000
38.161640	0.714405	57.950000
38.192474	0.698103	57.996000
38.222796	0.692396	58.042000
38.253576	0.681098	58.088000
38.283795	0.665563	58.135000
38.314667	0.648569	58.181000
38.418721	0.631963	58.228000
38.450592	0.580861	58.383000
38.481203	0.569022	58.429000
38.726447	0.499723	58.476000
38.757131	0.493714	58.843000
38.786908	0.497153	58.889000
38.817853	0.492361	58.935000
38.848940	0.480648	58.982000
38.879786	0.478435	59.028000
38.910915	0.470150	59.075000
38.942095	0.464530	59.121000
38.973562	0.458868	59.168000
39.003505	0.453529	59.214000
39.034965	0.448108	59.260000
39.146402	0.439529	59.306000
39.177343	0.437391	59.475000
39.208741	0.442078	59.521000
39.313002	0.467372	59.567000
39.342990	0.476097	59.722000
39.372249	0.482306	59.767000
39.403624	0.487759	59.814000
39.434762	0.492039	59.860000
39.465384	0.494774	59.907000
39.496544	0.498854	59.953000
39.527543	0.505723	59.999000
39.559034	0.510547	60.046000
39.589914	0.516988	60.092000
39.619952	0.529760	60.138000
39.650682	0.545711	60.184000
39.680794	0.563066	60.231000
39.712257	0.575974	60.277000
39.743229	0.597252	60.323000
39.774609	0.618511	60.370000
39.880191	0.642432	60.416000
39.911524	0.731578	60.575000
39.942400	0.758399	60.621000
40.044417	0.835355	60.667000
40.074809	0.851560	60.822000
40.106150	0.870141	60.868000
40.137429	0.886188	60.914000
40.168420	0.899755	60.961000
40.199373	0.915111	61.007000
40.230910	0.927988	61.053000
40.262155	0.944790	61.100000
40.292646	0.960226	61.146000
40.321521	0.981062	61.193000
40.352962	0.998146	61.239000
40.384479	1.014064	61.285000
40.415240	1.037596	61.331000
40.446139	1.047976	61.378000
40.477918	1.052506	61.424000
40.509051	1.050972	61.470000
40.614468	1.038718	61.517000
40.644952	1.006599	61.675000
40.675075	1.009965	61.721000
40.778456	1.051224	61.768000
40.809428	1.065676	61.922000
40.840404	1.087169	61.968000
40.870926	1.106014	62.013000
40.901341	1.129242	62.059000
40.931326	1.159877	62.105000
40.962052	1.192889	62.151000
40.992736	1.235381	62.198000
41.023558	1.271025	62.244000
41.055137	1.280894	62.291000
41.086198	1.265445	62.337000
41.117124	1.242949	62.383000
41.148265	1.225428	62.429000
41.179705	1.212984	62.476000
41.209436	1.202201	62.522000
41.240109	1.192994	62.568000
41.489544	1.171594	62.614000
41.519929	1.090721	62.987000
41.551300	1.080400	63.033000
41.581385	1.071961	63.080000
41.612411	1.064646	63.126000
41.642657	1.064457	63.172000
41.674293	1.063973	63.218000
41.705323	1.065161	63.265000
41.736210	1.075713	63.311000
41.767444	1.084731	63.357000
41.798485	1.093948	63.404000
41.828811	1.101988	63.450000
41.858181	1.104573	63.497000
41.890548	1.105488	63.543000
41.921082	1.106212	63.590000
41.952000	1.111091	63.635000
41.981958	1.120981	63.680000
42.086580	1.131248	63.727000
42.117072	1.152846	63.882000
42.148132	1.157942	63.929000
42.391939	1.279825	63.975000
42.423284	1.292471	64.342000
42.453142	1.309857	64.388000
42.485159	1.326218	64.434000
42.515824	1.341697	64.480000
42.547057	1.357699	64.527000
42.577560	1.370202	64.573000
42.609281	1.384506	64.619000
42.639086	1.399995	64.666000
42.670150	1.424091	64.712000
42.700277	1.445810	64.759000
42.814111	1.468042	64.805000
42.845759	1.513303	64.975000
42.876247	1.529015	65.021000
42.978748	1.550162	65.067000
43.010074	1.529678	65.222000
43.040439	1.508195	65.268000
43.072044	1.494963	65.315000
43.102997	1.486230	65.361000
43.134342	1.465724	65.407000
43.164626	1.439612	65.453000
43.196240	1.417213	65.500000
43.226509	1.394478	65.546000
43.257339	1.365628	65.593000
43.287020	1.336001	65.639000
43.319248	1.306113	65.686000
43.350113	1.273249	65.732000
43.381088	1.235728	65.778000
43.411592	1.206320	65.825000
43.443467	1.175558	65.871000
43.548672	1.152468	65.917000
43.578991	1.064677	66.075000
43.609833	1.050289	66.121000
43.712645	1.010028	66.167000
43.743659	0.996929	66.322000
43.775177	0.985770	66.368000
43.805918	0.970460	66.415000
43.837159	0.957100	66.461000
43.867543	0.949098	66.507000
43.897363	0.948668	66.554000
43.928181	0.965311	66.600000
43.959495	0.981293	66.646000
43.990475	0.994696	66.693000
44.021581	1.003829	66.739000
44.052403	1.008243	66.785000
44.083702	1.012429	66.831000
44.114244	1.021741	66.878000
44.145903	1.029521	66.924000
44.176399	1.035814	66.971000
44.280372	1.042367	67.017000
44.311516	1.059433	67.175000
44.342561	1.054798	67.221000
44.446357	0.995462	67.267000
44.477106	0.964463	67.422000
44.508459	0.935918	67.468000
44.539319	0.910350	67.514000
44.568897	0.891254	67.561000
44.598974	0.882969	67.607000
44.630207	0.876729	67.653000
44.661809	0.881216	67.699000
44.692251	0.880652	67.745000
44.723334	0.880326	67.792000
44.754856	0.871045	67.838000
44.785666	0.856531	67.884000
44.816151	0.840443	67.930000
44.846385	0.815500	67.977000
44.877138	0.790003	68.022000
44.908125	0.766996	68.069000
45.156485	0.736549	68.116000
45.187419	0.634706	68.487000
45.218714	0.623713	68.534000
45.250177	0.605883	68.580000
45.280907	0.596989	68.626000
45.312002	0.582278	68.672000
45.343447	0.566547	68.719000
45.374407	0.543854	68.766000
45.405395	0.521581	68.812000
45.434584	0.495874	68.858000
45.465452	0.469961	68.904000
45.496482	0.443744	68.950000
45.527727	0.425854	68.996000
45.558342	0.405930	69.042000
45.589510	0.389207	69.089000
45.620505	0.373338	69.135000
45.652034	0.356699	69.181000
45.754911	0.346148	69.228000
45.785100	0.327272	69.384000
45.816425	0.326179	69.430000
46.061393	0.349123	69.475000
46.091796	0.350552	69.843000
46.123686	0.342638	69.889000
46.154263	0.345191	69.935000
46.185807	0.333420	69.981000
46.216264	0.322122	70.028000
46.246937	0.312295	70.074000
46.277436	0.303078	70.121000
46.308305	0.295993	70.167000
46.339465	0.292937	70.214000
46.370103	0.293009	70.260000
46.483007	0.290720	70.306000
46.513568	0.301395	70.474000
46.544175	0.303887	70.521000
46.647606	0.315880	70.568000
46.678332	0.313430	70.722000
46.709953	0.318475	70.768000
46.740207	0.326842	70.815000
46.772193	0.322963	70.861000
46.802631	0.325286	70.908000
46.833254	0.328103	70.954000
46.862858	0.356196	71.000000
46.894741	0.404703	71.047000
46.925409	0.427638	71.092000
46.956688	0.416952	71.139000
46.987714	0.398785	71.186000
47.019070	0.412486	71.232000
47.049704	0.427972	71.278000
47.080158	0.442833	71.324000
47.111356	0.454139	71.371000
47.214464	0.463619	71.417000
47.246869	0.449189	71.575000
47.277688	0.429630	71.621000
47.381537	0.359959	71.668000
47.412410	0.340946	71.822000
47.442194	0.332979	71.868000
47.473539	0.330309	71.914000
47.503124	0.335060	71.960000
47.534957	0.343363	72.007000
47.565502	0.371288	72.053000
47.597224	0.399163	72.100000
47.628253	0.413481	72.146000
47.659848	0.421082	72.193000
47.689974	0.425517	72.239000
47.721726	0.441469	72.285000
47.752026	0.453845	72.332000
47.782548	0.473579	72.377000
47.812587	0.501759	72.424000
47.843901	0.541557	72.471000
47.949641	0.594619	72.517000
47.980655	0.753648	72.674000
48.012003	0.788511	72.721000
48.115400	0.850185	72.768000
48.144428	0.844176	72.922000
48.175696	0.829157	72.968000
48.206345	0.808520	73.014000
48.238231	0.785335	73.061000
48.268585	0.768709	73.107000
48.300121	0.759974	73.154000
48.331166	0.759628	73.200000
48.362592	0.756663	73.246000
48.392354	0.759113	73.293000
48.423863	0.757883	73.339000
48.454440	0.761382	73.386000
48.484928	0.764210	73.432000
48.514828	0.772167	73.478000
48.546718	0.778808	73.524000
48.577740	0.785503	73.570000
48.824759	0.786198	73.616000
48.856050	0.782571	73.987000
48.887322	0.791421	74.034000
48.918229	0.796571	74.080000
48.949543	0.801185	74.127000
48.980384	0.809814	74.173000
49.011794	0.814533	74.220000
49.042290	0.818653	74.266000
49.072593	0.820786	74.313000
49.103627	0.820272	74.359000
49.135021	0.817729	74.406000
49.166439	0.815720	74.452000
49.197322	0.810539	74.499000
49.227818	0.807460	74.545000
49.259101	0.801931	74.591000
49.290181	0.801311	74.637000
49.320162	0.803014	74.683000
49.423785	0.810707	74.730000
49.455106	0.864259	74.886000
49.485425	0.868676	74.931000
49.730985	0.921884	74.978000
49.762360	0.938496	75.345000
49.793005	0.952025	75.392000
49.823432	0.960906	75.438000
49.853597	0.965656	75.484000
49.884800	0.966768	75.530000
49.915192	0.961629	75.577000
49.946214	0.960402	75.623000
49.977754	0.957950	75.670000
50.009264	0.956471	75.716000
50.039940	0.963989	75.763000
50.149998	0.970754	75.809000
50.180663	0.989567	75.975000
50.212165	0.980998	76.021000
50.315250	0.941077	76.068000
50.347082	0.930358	76.222000
50.377778	0.923500	76.269000
50.407282	0.917218	76.314000
50.438089	0.911826	76.361000
50.468900	0.908839	76.407000
50.499833	0.902451	76.453000
50.531205	0.902251	76.500000
50.562523	0.898728	76.546000
50.594052	0.895320	76.593000
50.625104	0.901876	76.639000
50.655308	0.902419	76.686000
50.686564	0.910245	76.732000
50.716941	0.912958	76.777000
50.747125	0.917239	76.825000
50.777610	0.914617	76.871000
50.883584	0.905032	76.917000
50.914825	0.841722	77.075000
50.946396	0.820586	77.121000
51.049193	0.741235	77.168000
51.079212	0.721090	77.322000
51.109650	0.706669	77.368000
51.139742	0.691061	77.414000
51.171786	0.673499	77.461000
51.202605	0.652952	77.507000
51.234107	0.627465	77.553000
51.265033	0.606417	77.600000
51.296546	0.595365	77.646000
51.327161	0.592396	77.693000
51.357165	0.596403	77.739000
51.388164	0.598878	77.785000
51.418859	0.596884	77.832000
51.449839	0.595888	77.878000
51.480803	0.594924	77.925000
51.512386	0.588663	77.971000
51.617530	0.582351	78.017000
51.649109	0.553470	78.175000
51.679912	0.543454	78.221000
51.781691	0.509215	78.268000
51.812863	0.501719	78.422000
51.843209	0.491911	78.468000
51.875502	0.480742	78.515000
51.906378	0.476054	78.561000
51.937204	0.477208	78.607000
51.967823	0.486992	78.654000
51.998968	0.507171	78.700000
52.029099	0.527799	78.746000
52.060009	0.540298	78.793000
52.090155	0.560202	78.839000
52.121865	0.580861	78.885000
52.152841	0.605074	78.932000
52.183636	0.626908	78.976000
52.214689	0.651396	79.023000
52.245845	0.671724	79.070000
52.492361	0.689474	79.116000
52.523932	0.845971	79.487000
52.553202	0.861166	79.533000
52.584317	0.880473	79.579000
52.614336	0.898887	79.625000
52.645861	0.915361	79.672000
52.676272	0.935613	79.718000
52.708078	0.952143	79.765000
52.739649	0.973389	79.811000
52.770763	0.986392	79.857000
52.801355	0.993877	79.903000
52.832773	1.001692	79.950000
52.863841	1.005257	79.997000
52.893852	1.012763	80.043000
52.923906	1.017577	80.088000
52.954997	1.034283	80.135000
52.986227	1.057541	80.182000
53.090791	1.076754	80.228000
53.121248	1.158888	80.383000
53.152055	1.174001	80.430000
53.396435	1.435366	80.476000
53.426558	1.465398	80.843000
53.457699	1.495972	80.889000
53.488417	1.505346	80.935000
53.519750	1.515625	80.981000
53.550611	1.531211	81.028000
53.582217	1.545243	81.075000
53.612482	1.563005	81.121000
53.644522	1.566421	81.168000
53.675298	1.568764	81.214000
53.706155	1.569648	81.260000
53.817853	1.570215	81.306000
53.849144	1.582206	81.475000
53.880642	1.586169	81.521000
53.982041	1.591118	81.568000
54.012633	1.593219	81.722000
54.043716	1.598191	81.768000
54.074615	1.609352	81.815000
54.106144	1.621344	81.861000
54.137185	1.641817	81.907000
54.168292	1.650888	81.954000
54.199283	1.662208	82.000000
54.230535	1.684395	82.046000
54.261392	1.706358	82.093000
54.291727	1.727520	82.139000
54.322095	1.746784	82.186000
54.353248	1.771722	82.232000
54.384028	1.794961	82.278000
54.415926	1.817602	82.325000
54.446137	1.839739	82.371000
54.551608	1.868326	82.418000
54.582891	1.979175	82.575000
54.613410	2.018796	82.621000
54.715650	2.166375	82.667000
54.746845	2.205898	82.822000
54.777855	2.250364	82.869000
54.808973	2.300408	82.915000
54.840391	2.346746	82.962000
54.871858	2.394546	83.008000
54.902212	2.432865	83.054000
54.931378	2.453989	83.101000
54.962800	2.475766	83.147000
54.993856	2.513003	83.193000
55.024832	2.551827	83.240000
55.055796	2.582023	83.286000
55.087083	2.619021	83.332000
55.118413	2.668392	83.379000
55.149669	2.722137	83.425000
55.180153	2.770501	83.471000
55.284064	2.818535	83.518000
55.315489	2.943204	83.675000
55.346016	2.927398	83.721000
55.449815	3.019421	83.768000
55.480396	3.064535	83.922000
55.511306	3.114201	83.968000
55.542017	3.173031	84.014000
55.571813	3.234096	84.060000
55.602812	3.299311	84.106000
55.633581	3.351534	84.152000
55.664387	3.395036	84.198000
55.695678	3.424738	84.245000
55.726320	3.445976	84.291000
55.757058	3.464673	84.337000
55.789028	3.483475	84.384000
55.820108	3.512848	84.430000
55.850427	3.546754	84.476000
55.879793	3.588071	84.523000
55.911222	3.615673	84.569000
56.160270	3.632304	84.615000
56.190101	3.736955	84.987000
56.220781	3.744604	85.033000
56.251511	3.760181	85.079000
56.282825	3.775189	85.125000
56.314028	3.800370	85.172000
56.344381	3.833698	85.218000
56.375799	3.866289	85.264000
56.406840	3.896606	85.310000
56.437627	3.926714	85.357000
56.467190	3.971276	85.403000
56.498865	4.014217	85.450000
56.529679	4.053396	85.496000
56.561193	4.089728	85.542000
56.591373	4.118536	85.589000
56.623559	4.139578	85.635000
56.654489	4.155616	85.682000
56.758454	4.179219	85.728000
56.788850	4.197907	85.884000
56.819219	4.227387	85.930000
57.062980	4.476919	85.976000
57.094478	4.484324	86.343000
57.125623	4.492041	86.389000
57.157429	4.497756	86.436000
57.187371	4.516714	86.482000
57.219365	4.542325	86.528000
57.249477	4.570482	86.574000
57.279515	4.599354	86.620000
57.309627	4.632868	86.666000
57.341167	4.669780	86.713000
57.372366	4.701152	86.760000
57.485950	4.738839	86.806000
57.517234	4.863404	86.975000
57.547276	4.894477	87.022000
57.650584	4.971297	87.068000
57.681902	5.000872	87.223000
57.712701	5.026075	87.269000
57.744372	5.054598	87.316000
57.774453	5.077794	87.362000
57.806270	5.110395	87.409000
57.836942	5.146191	87.455000
57.868241	5.191809	87.502000
57.897257	5.236631	87.548000
57.928806	5.277017	87.594000
57.959490	5.311769	87.641000
57.990304	5.338889	87.687000
58.021169	5.366164	87.733000
58.052943	5.385523	87.780000
58.084165	5.408108	87.826000
58.115322	5.430043	87.872000
58.218814	5.458556	87.919000
58.248234	5.544307	88.075000
58.279724	5.560114	88.121000
58.383582	5.649017	88.167000
58.414742	5.688805	88.322000
58.446490	5.730322	88.369000
58.477477	5.776695	88.416000
58.507965	5.830301	88.462000
58.538649	5.880013	88.509000
58.568711	5.918415	88.555000
58.599617	5.971470	88.601000
58.631235	6.037316	88.647000
58.662203	6.104244	88.694000
58.693383	6.163326	88.740000
58.723755	6.230148	88.787000
58.755265	6.290581	88.833000
58.786445	6.366820	88.879000
58.817536	6.436392	88.925000
58.846948	6.516052	88.972000
58.951470	6.589522	89.018000
58.983022	6.725565	89.175000
59.013710	6.752743	89.221000
59.117675	6.840387	89.268000
59.148197	6.873148	89.422000
59.178627	6.914240	89.468000
59.208677	6.967994	89.515000
59.239957	7.019654	89.561000
59.271397	7.059671	89.607000
59.302462	7.086549	89.654000
59.333073	7.119213	89.700000
59.364698	7.159802	89.747000
59.395435	7.207286	89.792000
59.426745	7.255978	89.839000
59.456469	7.312638	89.885000
59.487683	7.370901	89.932000
59.518474	7.431507	89.978000
59.549131	7.487097	90.024000
59.579823	7.523769	90.069000
59.826370	7.555878	90.116000
59.857676	7.978389	90.487000
59.888517	8.044739	90.532000
59.919201	8.113914	90.579000
59.950669	8.194660	90.625000
59.981798	8.276072	90.671000
60.012006	8.361297	90.718000
60.042044	8.439112	90.764000
60.071353	8.511419	90.810000
60.100196	8.578914	90.856000
60.131526	8.646751	90.902000
60.161968	8.729272	90.948000
60.193539	8.821417	90.994000
60.224557	8.922176	91.040000
60.255464	9.013836	91.087000
60.285030	9.099587	91.133000
60.316248	9.175302	91.179000
60.420139	9.241736	91.225000
60.451219	9.424235	91.381000
60.482410	9.477388	91.427000
60.727093	9.947699	91.474000
60.757393	10.020258	91.840000
60.788722	10.086481	91.887000
60.819264	10.155426	91.933000
60.849956	10.223632	91.980000
60.880328	10.296468	92.026000
60.911393	10.369693	92.072000
60.942030	10.432254	92.118000
60.972999	10.501763	92.164000
61.004439	10.588010	92.210000
61.035884	10.677923	92.257000
61.149856	10.763903	92.303000
61.180072	11.107399	92.475000
61.210936	11.193742	92.521000
61.314789	11.482603	92.568000
61.344966	11.550937	92.722000
61.376860	11.607262	92.768000
61.407602	11.662200	92.814000
61.438228	11.712589	92.860000
61.467675	11.765065	92.907000
61.499550	11.815729	92.954000
61.530141	11.877438	93.000000
61.561501	11.937240	93.047000
61.592485	12.000602	93.093000
61.624129	12.066428	93.140000
61.655324	12.137140	93.186000
61.685366	12.204195	93.232000
61.716200	12.276128	93.278000
61.746342	12.355733	93.324000
61.777422	12.433580	93.371000
61.882751	12.516955	93.417000
61.913991	12.831388	93.575000
61.944748	12.938677	93.621000
62.047603	13.288192	93.667000
62.078767	13.419204	93.822000
62.109332	13.549209	93.868000
62.140131	13.658024	93.915000
62.170242	13.763629	93.961000
62.202083	13.886688	94.008000
62.233047	14.018994	94.054000
62.264188	14.130537	94.100000
62.294157	14.234318	94.146000
62.325986	14.345681	94.192000
62.357054	14.472894	94.239000
62.387346	14.605122	94.285000
62.417116	14.743101	94.331000
62.448633	14.870925	94.378000
62.479759	14.983212	94.424000
62.510815	15.082498	94.470000
62.616786	15.177419	94.517000
62.647473	15.476308	94.675000
62.678845	15.563930	94.722000
62.781315	15.876955	94.768000
62.811588	15.973644	94.922000
62.842706	16.082717	94.969000
62.873398	16.196402	95.015000
62.905092	16.305275	95.061000
62.936033	16.409519	95.107000
62.966963	16.512155	95.153000
62.997693	16.609870	95.200000
63.029141	16.706961	95.246000
63.059430	16.810657	95.293000
63.090186	16.917057	95.340000
63.120551	17.025472	95.386000
63.152338	17.142923	95.433000
63.183091	17.255108	95.478000
63.214086	17.368643	95.525000
63.245484	17.476127	95.572000
63.492177	17.574826	95.618000
63.522873	18.473490	95.987000
63.553871	18.565430	96.033000
63.584429	18.642312	96.080000
63.615823	18.712070	96.127000
63.646396	18.783121	96.173000
63.676957	18.853285	96.220000
63.707341	18.928832	96.266000
63.738901	19.017004	96.313000
63.770480	19.114325	96.359000
63.800630	19.213777	96.404000
63.831824	19.311928	96.451000
63.863150	19.414880	96.497000
63.894057	19.516008	96.544000
63.924591	19.606446	96.590000
63.954214	19.704891	96.636000
63.985839	19.795131	96.682000
64.090388	19.888823	96.729000
64.122063	20.243480	96.885000
64.152782	20.355303	96.932000
64.398126	21.327526	96.978000
64.428602	21.470031	97.346000
64.460147	21.614046	97.392000
64.490619	21.755840	97.439000
64.520900	21.897372	97.485000
64.551295	22.043995	97.531000
64.582859	22.187555	97.578000
64.613685	22.339240	97.624000
64.644749	22.490676	97.670000
64.675767	22.637720	97.716000
64.706878	22.782451	97.762000
64.817036	22.922810	97.809000
64.848299	23.421649	97.975000
64.878972	23.555056	98.021000
64.983206	24.012761	98.068000
65.013140	24.159561	98.222000
65.043544	24.311705	98.268000
65.074961	24.476888	98.315000
65.105726	24.636931	98.362000
65.136506	24.804875	98.408000
65.167939	24.963852	98.454000
65.199610	25.135889	98.501000
65.230521	25.310341	98.547000
65.260655	25.495894	98.594000
65.292795	25.658670	98.640000
65.322530	25.828986	98.686000
65.352426	26.053530	98.732000
65.382653	26.284086	98.777000
65.414140	26.507806	98.823000
65.444090	26.727274	98.868000
65.551128	26.938081	98.915000
65.582054	27.594592	99.075000
65.612534	27.773160	99.122000
65.715339	28.384965	99.166000
65.745474	28.584763	99.322000
65.777329	28.778226	99.369000
65.808002	28.972508	99.415000
65.839803	29.182530	99.462000
65.870691	29.402693	99.508000
65.902147	29.627107	99.555000
65.932704	29.853098	99.601000
65.962946	30.076955	99.647000
65.993511	30.295671	99.693000
66.024629	30.521216	99.739000
66.055470	30.750611	99.786000
66.086097	30.973437	99.832000
66.117414	31.197447	99.879000
66.148847	31.431276	99.925000
66.180035	31.652890	99.972000
66.284499	31.866008	100.018000
66.315532	32.603843	100.175000
66.346182	32.846367	100.222000
66.448210	33.638706	100.268000
66.479966	33.867951	100.422000
66.510615	34.095615	100.468000
66.542187	34.328596	100.515000
66.572091	34.542869	100.560000
66.603623	34.750031	100.607000
66.633696	34.956006	100.653000
66.664169	35.168518	100.699000
66.694957	35.386598	100.746000
66.726274	35.598686	100.792000
66.757738	35.806960	100.839000
66.789025	36.007908	100.885000
66.820274	36.219224	100.931000
66.851161	36.414327	100.978000
66.882310	36.607990	101.024000
66.912060	36.807892	101.071000
67.159306	37.009232	101.117000
67.191216	38.623436	101.488000
67.221204	38.802151	101.534000
67.251807	38.970657	101.581000
67.281642	39.131618	101.626000
67.313767	39.289147	101.673000
67.344885	39.426027	101.719000
67.375649	39.553477	101.765000
67.406844	39.678164	101.811000
67.438154	39.819755	101.858000
67.468842	39.981584	101.904000
67.499653	40.149959	101.951000
67.529103	40.323485	101.997000
67.560229	40.500766	102.043000
67.591939	40.674839	102.090000
67.622511	40.848303	102.136000
67.654021	41.000782	102.183000
67.758324	41.163527	102.229000
67.789803	41.778308	102.385000
67.820460	41.998833	102.431000
68.064540	43.944221	102.477000
68.094452	44.194324	102.845000
68.125816	44.446692	102.891000
68.156511	44.680769	102.938000
68.188067	44.910565	102.984000
68.218617	45.151739	103.030000
68.250127	45.401349	103.076000
68.280822	45.660622	103.123000
68.312516	45.901881	103.169000
68.341783	46.136580	103.215000
68.372524	46.364994	103.261000
68.485494	46.595719	103.308000
68.516128	47.459230	103.475000
68.547699	47.690644	103.521000
68.649428	48.469786	103.568000
